title:Meditation, start timestamp:1583521498.648371, stop timestamp:1583521564.628264, headset type:INSIGHT, headset serial:A1D2068CFA, headset firmware:930, subject name:Corey, channels:31, sampling rate:eeg_128;mot_64, samples:8464      , version:2.0
Timestamp,EEG.Counter,EEG.Interpolated,EEG.AF3,EEG.T7,EEG.Pz,EEG.T8,EEG.AF4,EEG.RawCq,EEG.Battery,MarkerIndex,MarkerType,MarkerValueInt,EEG.MarkerHardware,CQ.AF3,CQ.T7,CQ.Pz,CQ.T8,CQ.AF4,MOT.CounterMems,MOT.InterpolatedMems,MOT.Q0,MOT.Q1,MOT.Q2,MOT.Q3,MOT.AccX,MOT.AccY,MOT.AccZ,MOT.MagX,MOT.MagY,MOT.MagZ
1583521498.648371,91.000000,0.000000,4289.743652,4274.871582,4068.205078,4063.076904,4181.025879,1023.000000,4.000000,,,,0.000000,4.000000,4.000000,4.000000,4.000000,4.000000,,,,,,,,,,,,
1583521498.656069,92.000000,0.000000,4291.282227,4276.922852,4068.205078,4066.666748,4171.282227,450.000000,4.000000,,,,0.000000,4.000000,4.000000,4.000000,4.000000,4.000000,46.000000,0.000000,0.656622,0.140625,0.671875,0.312500,0.812512,-0.593759,-0.062501,-76.563667,-76.563667,38.281834
1583521498.663965,93.000000,0.000000,4292.820313,4276.922852,4066.666748,4070.769287,4164.615234,450.000000,4.000000,,,,0.000000,4.000000,4.000000,4.000000,4.000000,4.000000,,,,,,,,,,,,
1583521498.671662,94.000000,0.000000,4296.922852,4281.025879,4073.333252,4068.205078,4177.948730,450.000000,4.000000,,,,0.000000,4.000000,4.000000,4.000000,4.000000,4.000000,47.000000,0.000000,0.656622,0.140625,0.671875,0.312500,0.812512,-0.625010,-0.062501,-76.563667,-76.563667,38.281834
1583521498.679558,95.000000,0.000000,4303.589844,4281.025879,4081.538574,4075.897461,4192.820313,1023.000000,4.000000,,,,0.000000,4.000000,4.000000,4.000000,4.000000,4.000000,,,,,,,,,,,,
1583521498.687255,96.000000,0.000000,4300.000000,4276.922852,4071.281982,4071.794922,4181.025879,450.000000,4.000000,,,,0.000000,4.000000,4.000000,4.000000,4.000000,4.000000,48.000000,0.000000,0.656622,0.140625,0.671875,0.312500,0.843763,-0.625010,-0.062501,-76.563667,-76.563667,38.281834
1583521498.695151,97.000000,0.000000,4285.641113,4272.820313,4070.256348,4075.897461,4153.846191,450.000000,4.000000,,,,0.000000,4.000000,4.000000,4.000000,4.000000,4.000000,,,,,,,,,,,,
1583521498.702848,98.000000,0.000000,4286.666504,4283.077148,4080.512939,4079.487061,4162.563965,450.000000,4.000000,,,,0.000000,4.000000,4.000000,4.000000,4.000000,4.000000,49.000000,0.000000,0.656622,0.140625,0.671875,0.312500,0.812512,-0.625010,-0.062501,-76.563667,-76.563667,38.281834
1583521498.710542,99.000000,0.000000,4286.666504,4285.128418,4080.512939,4086.153809,4178.974121,1023.000000,4.000000,,,,0.000000,4.000000,4.000000,4.000000,4.000000,4.000000,,,,,,,,,,,,
1583521498.718240,100.000000,0.000000,4289.230957,4285.128418,4073.846191,4079.487061,4183.077148,450.000000,4.000000,,,,0.000000,4.000000,4.000000,4.000000,4.000000,4.000000,50.000000,0.000000,0.656622,0.140625,0.671875,0.312500,0.843763,-0.625010,-0.062501,-76.563667,-76.563667,38.281834
1583521498.726135,101.000000,0.000000,4282.051270,4281.025879,4081.538574,4075.384521,4174.871582,450.000000,4.000000,,,,0.000000,4.000000,4.000000,4.000000,4.000000,4.000000,,,,,,,,,,,,
1583521498.733832,102.000000,0.000000,4279.487305,4289.230957,4091.281982,4072.820557,4175.897461,450.000000,4.000000,,,,0.000000,4.000000,4.000000,4.000000,4.000000,4.000000,51.000000,0.000000,0.656622,0.140625,0.671875,0.312500,0.843763,-0.593759,-0.062501,-76.563667,-76.563667,38.281834
1583521498.741728,103.000000,0.000000,4274.358887,4291.282227,4080.000000,4062.564209,4165.128418,1023.000000,4.000000,,,,0.000000,4.000000,4.000000,4.000000,4.000000,4.000000,,,,,,,,,,,,
1583521498.749426,104.000000,0.000000,4276.410156,4289.230957,4077.948730,4063.076904,4167.179688,450.000000,4.000000,,,,0.000000,4.000000,4.000000,4.000000,4.000000,4.000000,52.000000,0.000000,0.656622,0.140625,0.671875,0.312500,0.812512,-0.593759,-0.062501,-76.563667,-76.563667,38.281834
1583521498.757323,105.000000,0.000000,4275.897461,4281.025879,4088.718018,4070.769287,4173.846191,450.000000,4.000000,,,,0.000000,4.000000,4.000000,4.000000,4.000000,4.000000,,,,,,,,,,,,
1583521498.765221,106.000000,0.000000,4278.974121,4287.179688,4093.333252,4076.923096,4181.025879,450.000000,4.000000,,,,0.000000,4.000000,4.000000,4.000000,4.000000,4.000000,53.000000,0.000000,0.656622,0.140625,0.671875,0.312500,0.843763,-0.562509,-0.062501,-76.563667,-76.563667,38.281834
1583521498.773117,107.000000,0.000000,4261.025879,4276.922852,4072.820557,4067.692383,4170.256348,1023.000000,4.000000,,,,0.000000,4.000000,4.000000,4.000000,4.000000,4.000000,,,,,,,,,,,,
1583521498.781015,108.000000,0.000000,4244.615234,4262.563965,4064.615479,4077.948730,4162.563965,450.000000,4.000000,,,,0.000000,4.000000,4.000000,4.000000,4.000000,4.000000,54.000000,0.000000,0.656622,0.140625,0.671875,0.312500,0.812512,-0.562509,-0.062501,-76.563667,-76.563667,38.281834
1583521498.788912,109.000000,0.000000,4253.846191,4281.025879,4078.974365,4082.564209,4176.922852,450.000000,4.000000,,,,0.000000,4.000000,4.000000,4.000000,4.000000,4.000000,,,,,,,,,,,,
1583521498.796808,110.000000,0.000000,4250.769043,4289.230957,4083.589844,4083.589844,4176.922852,450.000000,4.000000,,,,0.000000,4.000000,4.000000,4.000000,4.000000,4.000000,55.000000,0.000000,0.656622,0.140625,0.671875,0.312500,0.843763,-0.562509,-0.062501,-76.563667,-76.563667,38.281834
1583521498.804504,111.000000,0.000000,4232.820313,4266.666504,4065.128174,4077.435791,4164.615234,1023.000000,4.000000,,,,0.000000,4.000000,4.000000,4.000000,4.000000,4.000000,,,,,,,,,,,,
1583521498.812202,112.000000,0.000000,4216.922852,4252.307617,4057.435791,4085.128174,4156.410156,450.000000,4.000000,,,,0.000000,4.000000,4.000000,4.000000,4.000000,4.000000,56.000000,0.000000,0.656622,0.140625,0.671875,0.312500,0.812512,-0.562509,-0.062501,-76.563667,-76.563667,38.281834
1583521498.820098,113.000000,0.000000,4211.282227,4264.615234,4068.718018,4081.538574,4155.384766,450.000000,4.000000,,,,0.000000,4.000000,4.000000,4.000000,4.000000,4.000000,,,,,,,,,,,,
1583521498.827796,114.000000,0.000000,4196.410156,4262.563965,4065.128174,4071.794922,4134.358887,450.000000,4.000000,,,,0.000000,4.000000,4.000000,4.000000,4.000000,4.000000,57.000000,0.000000,0.656622,0.140625,0.671875,0.312500,0.812512,-0.562509,-0.062501,-76.563667,-76.563667,38.281834
1583521498.835692,115.000000,0.000000,4205.641113,4264.615234,4057.435791,4075.897461,4135.384766,1023.000000,4.000000,,,,0.000000,4.000000,4.000000,4.000000,4.000000,4.000000,,,,,,,,,,,,
1583521498.843390,116.000000,0.000000,4216.410156,4266.666504,4059.487061,4081.025635,4149.230957,450.000000,4.000000,,,,0.000000,4.000000,4.000000,4.000000,4.000000,4.000000,58.000000,0.000000,0.656622,0.140625,0.671875,0.312500,0.812512,-0.562509,-0.062501,-76.563667,-76.563667,38.281834
1583521498.851286,117.000000,0.000000,4213.333496,4266.666504,4056.923096,4067.692383,4158.461426,450.000000,4.000000,,,,0.000000,4.000000,4.000000,4.000000,4.000000,4.000000,,,,,,,,,,,,
1583521498.858983,118.000000,0.000000,4213.333496,4266.666504,4057.435791,4065.128174,4162.051270,450.000000,4.000000,,,,0.000000,4.000000,4.000000,4.000000,4.000000,4.000000,59.000000,0.000000,0.656622,0.140625,0.671875,0.312500,0.812512,-0.562509,-0.062501,-76.563667,-76.563667,38.281834
1583521498.866879,119.000000,0.000000,4233.333496,4278.974121,4073.846191,4084.102539,4171.794922,1023.000000,4.000000,,,,0.000000,4.000000,4.000000,4.000000,4.000000,4.000000,,,,,,,,,,,,
1583521498.874577,120.000000,0.000000,4239.487305,4274.871582,4082.051270,4084.615479,4165.128418,450.000000,4.000000,,,,0.000000,4.000000,4.000000,4.000000,4.000000,4.000000,60.000000,0.000000,0.656622,0.140625,0.671875,0.312500,0.812512,-0.562509,-0.031250,-76.563667,-76.563667,38.281834
1583521498.882473,121.000000,0.000000,4233.846191,4270.769043,4080.000000,4075.384521,4150.256348,450.000000,4.000000,,,,0.000000,4.000000,4.000000,4.000000,4.000000,4.000000,,,,,,,,,,,,
1583521498.890170,122.000000,0.000000,4224.102539,4264.615234,4068.205078,4067.179443,4144.102539,450.000000,4.000000,,,,0.000000,4.000000,4.000000,4.000000,4.000000,4.000000,61.000000,0.000000,0.656622,0.140625,0.671875,0.312500,0.781262,-0.593759,-0.062501,-76.563667,-76.563667,38.281834
1583521498.898066,123.000000,0.000000,4225.641113,4260.512695,4060.512939,4070.769287,4151.794922,1023.000000,4.000000,,,,0.000000,4.000000,4.000000,4.000000,4.000000,4.000000,,,,,,,,,,,,
1583521498.905763,124.000000,0.000000,4242.563965,4268.717773,4064.102539,4062.564209,4151.282227,450.000000,4.000000,,,,0.000000,4.000000,4.000000,4.000000,4.000000,4.000000,62.000000,0.000000,0.656622,0.140625,0.671875,0.312500,0.812512,-0.593759,-0.062501,-76.563667,-76.563667,38.281834
1583521498.913659,125.000000,0.000000,4255.384766,4283.077148,4077.435791,4062.051270,4148.205078,450.000000,4.000000,,,,0.000000,4.000000,4.000000,4.000000,4.000000,4.000000,,,,,,,,,,,,
1583521498.921356,126.000000,0.000000,4232.820313,4281.025879,4078.461426,4060.000000,4148.717773,450.000000,4.000000,,,,0.000000,4.000000,4.000000,4.000000,4.000000,4.000000,63.000000,0.000000,0.656622,0.140625,0.671875,0.312500,0.812512,-0.625010,-0.062501,-76.563667,-76.563667,38.281834
1583521498.929252,127.000000,0.000000,4226.666504,4278.974121,4084.102539,4065.641113,4161.538574,243.000000,4.000000,,,,0.000000,4.000000,4.000000,4.000000,4.000000,4.000000,,,,,,,,,,,,
1583521498.936949,0.000000,0.000000,4274.871582,4295.384766,4096.922852,4061.538574,4187.692383,450.000000,4.000000,,,,0.000000,4.000000,4.000000,4.000000,4.000000,4.000000,0.000000,0.000000,0.656622,0.140625,0.671875,0.312500,0.812512,-0.593759,-0.062501,-76.563667,-76.563667,38.281834
1583521498.944844,1.000000,0.000000,4295.897461,4295.384766,4102.051270,4066.666748,4185.128418,450.000000,4.000000,,,,0.000000,4.000000,4.000000,4.000000,4.000000,4.000000,,,,,,,,,,,,
1583521498.952541,2.000000,0.000000,4288.205078,4293.333496,4098.974121,4064.615479,4181.538574,1023.000000,4.000000,,,,0.000000,4.000000,4.000000,4.000000,4.000000,4.000000,1.000000,0.000000,0.656622,0.140625,0.671875,0.312500,0.812512,-0.593759,-0.031250,-76.563667,-76.563667,38.281834
1583521498.960437,3.000000,0.000000,4287.692383,4297.436035,4100.512695,4058.974365,4187.179688,450.000000,4.000000,,,,0.000000,4.000000,4.000000,4.000000,4.000000,4.000000,,,,,,,,,,,,
1583521498.968135,4.000000,0.000000,4289.230957,4299.487305,4103.077148,4057.435791,4184.615234,1023.000000,4.000000,,,,0.000000,4.000000,4.000000,4.000000,4.000000,4.000000,2.000000,0.000000,0.656622,0.140625,0.671875,0.312500,0.812512,-0.625010,-0.062501,-76.563667,-76.563667,38.281834
1583521498.976031,5.000000,0.000000,4269.230957,4293.333496,4102.563965,4056.410156,4163.589844,450.000000,4.000000,,,,0.000000,4.000000,4.000000,4.000000,4.000000,4.000000,,,,,,,,,,,,
1583521498.983929,6.000000,0.000000,4274.871582,4297.436035,4106.153809,4048.718018,4169.230957,1023.000000,4.000000,,,,0.000000,4.000000,4.000000,4.000000,4.000000,4.000000,3.000000,0.000000,0.656622,0.140625,0.671875,0.312500,0.812512,-0.593759,-0.031250,-76.563667,-76.563667,38.281834
1583521498.991826,7.000000,0.000000,4288.205078,4299.487305,4107.692383,4043.589844,4178.974121,450.000000,4.000000,,,,0.000000,4.000000,4.000000,4.000000,4.000000,4.000000,,,,,,,,,,,,
1583521498.999722,8.000000,0.000000,4290.769043,4291.282227,4105.641113,4045.128174,4182.051270,450.000000,4.000000,,,,0.000000,4.000000,4.000000,4.000000,4.000000,4.000000,4.000000,0.000000,0.656622,0.140625,0.671875,0.312500,0.843763,-0.593759,-0.062501,-76.563667,-76.563667,38.281834
1583521499.007417,9.000000,0.000000,4282.563965,4278.974121,4102.051270,4041.538574,4173.846191,287.000000,4.000000,,,,0.000000,4.000000,4.000000,4.000000,4.000000,4.000000,,,,,,,,,,,,
1583521499.015114,10.000000,0.000000,4295.897461,4295.384766,4114.871582,4049.230713,4182.563965,450.000000,4.000000,,,,0.000000,4.000000,4.000000,4.000000,4.000000,4.000000,5.000000,0.000000,0.640244,0.140625,0.687500,0.312500,0.812512,-0.593759,-0.062501,-76.563667,-76.563667,38.281834
1583521499.022810,11.000000,0.000000,4326.666504,4322.051270,4134.358887,4049.743652,4213.333496,1023.000000,4.000000,,,,0.000000,4.000000,4.000000,4.000000,4.000000,4.000000,,,,,,,,,,,,
1583521499.030507,12.000000,0.000000,4333.846191,4322.051270,4143.077148,4049.743652,4223.589844,450.000000,4.000000,,,,0.000000,4.000000,4.000000,4.000000,4.000000,4.000000,6.000000,0.000000,0.640244,0.140625,0.687500,0.312500,0.812512,-0.593759,-0.031250,-76.563667,-76.563667,38.281834
1583521499.038403,13.000000,0.000000,4313.333496,4299.487305,4123.589844,4038.974365,4204.102539,450.000000,4.000000,,,,0.000000,4.000000,4.000000,4.000000,4.000000,4.000000,,,,,,,,,,,,
1583521499.046101,14.000000,0.000000,4299.487305,4289.230957,4117.436035,4047.179443,4193.333496,450.000000,4.000000,,,,0.000000,4.000000,4.000000,4.000000,4.000000,4.000000,7.000000,0.000000,0.640244,0.140625,0.687500,0.312500,0.812512,-0.593759,-0.031250,-76.563667,-76.563667,38.281834
1583521499.053997,15.000000,0.000000,4307.179688,4303.589844,4134.358887,4046.666748,4198.461426,1023.000000,4.000000,,,,0.000000,4.000000,4.000000,4.000000,4.000000,4.000000,,,,,,,,,,,,
1583521499.061696,16.000000,0.000000,4308.717773,4301.538574,4134.871582,4041.538574,4200.000000,0.000000,4.000000,,,,0.000000,4.000000,4.000000,4.000000,4.000000,4.000000,8.000000,0.000000,0.640244,0.140625,0.687500,0.312500,0.812512,-0.593759,-0.031250,-76.563667,-76.563667,38.281834
1583521499.069593,17.000000,0.000000,4306.666504,4293.333496,4112.307617,4039.487061,4210.256348,0.000000,4.000000,,,,0.000000,4.000000,4.000000,4.000000,4.000000,4.000000,,,,,,,,,,,,
1583521499.077490,18.000000,0.000000,4300.000000,4293.333496,4106.666504,4050.256348,4207.692383,0.000000,4.000000,,,,0.000000,4.000000,4.000000,4.000000,4.000000,4.000000,9.000000,0.000000,0.640244,0.140625,0.687500,0.312500,0.843763,-0.593759,-0.031250,-76.563667,-76.563667,38.281834
1583521499.085386,19.000000,0.000000,4305.641113,4301.538574,4116.922852,4050.256348,4203.589844,0.000000,4.000000,,,,0.000000,4.000000,4.000000,4.000000,4.000000,4.000000,,,,,,,,,,,,
1583521499.093083,20.000000,0.000000,4301.025879,4287.179688,4119.487305,4048.205078,4200.000000,0.000000,4.000000,,,,0.000000,4.000000,4.000000,4.000000,4.000000,4.000000,10.000000,0.000000,0.640244,0.140625,0.687500,0.312500,0.843763,-0.562509,-0.031250,-76.563667,-76.563667,38.281834
1583521499.100979,21.000000,0.000000,4293.846191,4289.230957,4119.487305,4046.666748,4193.333496,0.000000,4.000000,,,,0.000000,4.000000,4.000000,4.000000,4.000000,4.000000,,,,,,,,,,,,
1583521499.108675,22.000000,0.000000,4289.743652,4299.487305,4116.922852,4041.538574,4187.692383,0.000000,4.000000,,,,0.000000,4.000000,4.000000,4.000000,4.000000,4.000000,11.000000,0.000000,0.640244,0.140625,0.687500,0.312500,0.843763,-0.562509,-0.031250,-76.563667,-76.563667,38.281834
1583521499.116370,23.000000,0.000000,4298.974121,4295.384766,4114.358887,4057.435791,4208.205078,0.000000,4.000000,,,,0.000000,4.000000,4.000000,4.000000,4.000000,4.000000,,,,,,,,,,,,
1583521499.124067,24.000000,0.000000,4303.589844,4283.077148,4113.333496,4061.538574,4221.538574,0.000000,4.000000,,,,0.000000,4.000000,4.000000,4.000000,4.000000,4.000000,12.000000,0.000000,0.640244,0.140625,0.687500,0.312500,0.812512,-0.562509,-0.031250,-76.563667,-76.563667,38.281834
1583521499.131963,25.000000,0.000000,4304.615234,4289.230957,4113.846191,4049.743652,4231.282227,0.000000,4.000000,,,,0.000000,4.000000,4.000000,4.000000,4.000000,4.000000,,,,,,,,,,,,
1583521499.139660,26.000000,0.000000,4290.769043,4287.179688,4101.538574,4041.025635,4241.538574,0.000000,4.000000,,,,0.000000,4.000000,4.000000,4.000000,4.000000,4.000000,13.000000,0.000000,0.640244,0.140625,0.687500,0.312500,0.843763,-0.562509,-0.031250,-76.563667,-76.563667,38.281834
1583521499.147555,27.000000,0.000000,4272.820313,4270.769043,4094.871826,4054.358887,4242.563965,0.000000,4.000000,,,,0.000000,4.000000,4.000000,4.000000,4.000000,4.000000,,,,,,,,,,,,
1583521499.155252,28.000000,0.000000,4262.051270,4266.666504,4105.641113,4057.435791,4237.948730,0.000000,4.000000,,,,0.000000,4.000000,4.000000,4.000000,4.000000,4.000000,14.000000,0.000000,0.640244,0.140625,0.687500,0.312500,0.843763,-0.562509,-0.031250,-76.563667,-76.563667,38.281834
1583521499.163148,29.000000,0.000000,4254.358887,4281.025879,4126.153809,4068.718018,4249.743652,0.000000,4.000000,,,,0.000000,4.000000,4.000000,4.000000,4.000000,4.000000,,,,,,,,,,,,
1583521499.170846,30.000000,0.000000,4235.384766,4283.077148,4124.102539,4066.153809,4258.461426,0.000000,4.000000,,,,0.000000,4.000000,4.000000,4.000000,4.000000,4.000000,15.000000,0.000000,0.640244,0.140625,0.687500,0.312500,0.812512,-0.562509,-0.031250,-76.563667,-76.563667,38.281834
1583521499.178742,31.000000,0.000000,4212.820313,4268.717773,4113.846191,4066.666748,4240.512695,0.000000,4.000000,,,,0.000000,4.000000,4.000000,4.000000,4.000000,4.000000,,,,,,,,,,,,
1583521499.186640,32.000000,0.000000,4206.666504,4266.666504,4121.538574,4073.333252,4234.358887,0.000000,4.000000,,,,0.000000,4.000000,4.000000,4.000000,4.000000,4.000000,16.000000,0.000000,0.640244,0.140625,0.687500,0.312500,0.812512,-0.562509,-0.031250,-76.563667,-76.563667,38.281834
1583521499.194536,33.000000,0.000000,4186.666504,4266.666504,4134.358887,4078.461426,4228.205078,0.000000,4.000000,,,,0.000000,4.000000,4.000000,4.000000,4.000000,4.000000,,,,,,,,,,,,
1583521499.202233,34.000000,0.000000,4171.794922,4270.769043,4130.256348,4066.153809,4216.410156,0.000000,4.000000,,,,0.000000,4.000000,4.000000,4.000000,4.000000,4.000000,17.000000,0.000000,0.640244,0.140625,0.687500,0.312500,0.843763,-0.562509,-0.031250,-76.563667,-76.563667,38.281834
1583521499.209928,35.000000,0.000000,4178.461426,4272.820313,4122.563965,4055.384521,4208.717773,0.000000,4.000000,,,,0.000000,4.000000,4.000000,4.000000,4.000000,4.000000,,,,,,,,,,,,
1583521499.217625,36.000000,0.000000,4189.743652,4274.871582,4131.794922,4055.384521,4222.563965,0.000000,4.000000,,,,0.000000,4.000000,4.000000,4.000000,4.000000,4.000000,18.000000,0.000000,0.640244,0.140625,0.687500,0.312500,0.843763,-0.562509,-0.031250,-76.563667,-76.563667,38.281834
1583521499.225320,37.000000,0.000000,4176.410156,4270.769043,4135.897461,4057.948730,4223.077148,0.000000,4.000000,,,,0.000000,4.000000,4.000000,4.000000,4.000000,4.000000,,,,,,,,,,,,
1583521499.233018,38.000000,0.000000,4180.512695,4281.025879,4127.692383,4057.948730,4226.153809,0.000000,4.000000,,,,0.000000,4.000000,4.000000,4.000000,4.000000,4.000000,19.000000,0.000000,0.640244,0.140625,0.687500,0.312500,0.843763,-0.531258,-0.031250,-76.563667,-76.563667,38.281834
1583521499.240914,39.000000,0.000000,4191.282227,4276.922852,4124.102539,4052.307617,4228.205078,0.000000,4.000000,,,,0.000000,4.000000,4.000000,4.000000,4.000000,4.000000,,,,,,,,,,,,
1583521499.248611,40.000000,0.000000,4194.871582,4272.820313,4138.974121,4057.948730,4229.230957,0.000000,4.000000,,,,0.000000,4.000000,4.000000,4.000000,4.000000,4.000000,20.000000,0.000000,0.640244,0.140625,0.687500,0.312500,0.812512,-0.531258,-0.031250,-76.563667,-76.563667,38.281834
1583521499.256508,41.000000,0.000000,4185.128418,4272.820313,4137.436035,4052.307617,4223.077148,0.000000,4.000000,,,,0.000000,4.000000,4.000000,4.000000,4.000000,4.000000,,,,,,,,,,,,
1583521499.264205,42.000000,0.000000,4177.948730,4278.974121,4123.589844,4049.230713,4210.769043,0.000000,4.000000,,,,0.000000,4.000000,4.000000,4.000000,4.000000,4.000000,21.000000,0.000000,0.640244,0.140625,0.687500,0.312500,0.812512,-0.531258,-0.031250,-76.563667,-76.563667,38.281834
1583521499.272101,43.000000,0.000000,4178.461426,4274.871582,4122.563965,4054.358887,4201.538574,0.000000,4.000000,,,,0.000000,4.000000,4.000000,4.000000,4.000000,4.000000,,,,,,,,,,,,
1583521499.279800,44.000000,0.000000,4166.666504,4264.615234,4125.128418,4059.487061,4192.820313,0.000000,4.000000,,,,0.000000,4.000000,4.000000,4.000000,4.000000,4.000000,22.000000,0.000000,0.640244,0.140625,0.687500,0.312500,0.812512,-0.531258,-0.031250,-76.563667,-76.563667,38.281834
1583521499.287697,45.000000,0.000000,4150.769043,4258.461426,4102.563965,4042.564209,4176.410156,0.000000,4.000000,,,,0.000000,4.000000,4.000000,4.000000,4.000000,4.000000,,,,,,,,,,,,
1583521499.295594,46.000000,0.000000,4158.974121,4256.410156,4095.384521,4055.897461,4177.436035,0.000000,4.000000,,,,0.000000,4.000000,4.000000,4.000000,4.000000,4.000000,23.000000,0.000000,0.640244,0.140625,0.687500,0.312500,0.843763,-0.562509,0.000000,-76.563667,-76.563667,38.281834
1583521499.303489,47.000000,0.000000,4182.051270,4264.615234,4114.358887,4067.179443,4200.512695,0.000000,4.000000,,,,0.000000,4.000000,4.000000,4.000000,4.000000,4.000000,,,,,,,,,,,,
1583521499.311187,48.000000,0.000000,4171.794922,4260.512695,4109.230957,4055.897461,4187.179688,0.000000,4.000000,,,,0.000000,4.000000,4.000000,4.000000,4.000000,4.000000,24.000000,0.000000,0.643477,0.125000,0.687500,0.312500,0.812512,-0.531258,-0.031250,-76.563667,-76.563667,38.281834
1583521499.319082,49.000000,0.000000,4160.512695,4254.358887,4080.000000,4039.487061,4170.769043,0.000000,4.000000,,,,0.000000,4.000000,4.000000,4.000000,4.000000,4.000000,,,,,,,,,,,,
1583521499.326779,50.000000,0.000000,4157.436035,4248.205078,4072.307617,4049.743652,4172.820313,0.000000,4.000000,,,,0.000000,4.000000,4.000000,4.000000,4.000000,4.000000,25.000000,0.000000,0.643477,0.125000,0.687500,0.312500,0.812512,-0.531258,-0.031250,-76.563667,-76.563667,38.281834
1583521499.334676,51.000000,0.000000,4167.179688,4254.358887,4081.538574,4058.461426,4172.820313,0.000000,4.000000,,,,0.000000,4.000000,4.000000,4.000000,4.000000,4.000000,,,,,,,,,,,,
1583521499.342573,52.000000,0.000000,4168.205078,4254.358887,4083.076904,4054.871826,4155.384766,0.000000,4.000000,,,,0.000000,4.000000,4.000000,4.000000,4.000000,4.000000,26.000000,0.000000,0.643477,0.125000,0.687500,0.312500,0.843763,-0.562509,-0.031250,-76.563667,-76.563667,38.281834
1583521499.350469,53.000000,0.000000,4169.743652,4254.358887,4086.666748,4054.871826,4157.948730,0.000000,4.000000,,,,0.000000,4.000000,4.000000,4.000000,4.000000,4.000000,,,,,,,,,,,,
1583521499.358166,54.000000,0.000000,4169.230957,4252.307617,4087.179443,4053.333252,4163.589844,0.000000,4.000000,,,,0.000000,4.000000,4.000000,4.000000,4.000000,4.000000,27.000000,0.000000,0.643477,0.125000,0.687500,0.312500,0.843763,-0.562509,0.000000,-76.563667,-76.563667,38.281834
1583521499.366061,55.000000,0.000000,4168.717773,4262.563965,4090.256348,4063.076904,4163.077148,0.000000,4.000000,,,,0.000000,4.000000,4.000000,4.000000,4.000000,4.000000,,,,,,,,,,,,
1583521499.373759,56.000000,0.000000,4144.615234,4262.563965,4083.076904,4059.487061,4141.025879,0.000000,4.000000,,,,0.000000,4.000000,4.000000,4.000000,4.000000,4.000000,28.000000,0.000000,0.643477,0.125000,0.687500,0.312500,0.843763,-0.562509,-0.031250,-76.563667,-76.563667,38.281834
1583521499.381656,57.000000,0.000000,4133.333496,4252.307617,4073.333252,4057.435791,4129.230957,0.000000,4.000000,,,,0.000000,4.000000,4.000000,4.000000,4.000000,4.000000,,,,,,,,,,,,
1583521499.389553,58.000000,0.000000,4153.333496,4252.307617,4080.512939,4060.512939,4152.307617,0.000000,4.000000,,,,0.000000,4.000000,4.000000,4.000000,4.000000,4.000000,29.000000,0.000000,0.650833,0.125000,0.687500,0.296875,0.843763,-0.562509,-0.031250,-76.563667,-76.563667,38.281834
1583521499.397450,59.000000,0.000000,4165.128418,4260.512695,4096.410156,4073.333252,4170.769043,0.000000,4.000000,,,,0.000000,4.000000,4.000000,4.000000,4.000000,4.000000,,,,,,,,,,,,
1583521499.405146,60.000000,0.000000,4151.282227,4258.461426,4089.230713,4063.589844,4158.461426,0.000000,4.000000,,,,0.000000,4.000000,4.000000,4.000000,4.000000,4.000000,30.000000,0.000000,0.650833,0.125000,0.687500,0.296875,0.843763,-0.562509,-0.031250,-76.563667,-76.563667,38.281834
1583521499.412842,61.000000,0.000000,4143.077148,4246.153809,4074.871826,4058.461426,4141.025879,0.000000,4.000000,,,,0.000000,4.000000,4.000000,4.000000,4.000000,4.000000,,,,,,,,,,,,
1583521499.420538,62.000000,0.000000,4152.307617,4250.256348,4074.871826,4061.538574,4149.230957,0.000000,4.000000,,,,0.000000,4.000000,4.000000,4.000000,4.000000,4.000000,31.000000,0.000000,0.647637,0.140625,0.687500,0.296875,0.843763,-0.562509,-0.031250,-76.563667,-76.563667,38.281834
1583521499.428233,63.000000,0.000000,4155.897461,4260.512695,4082.564209,4066.666748,4157.436035,0.000000,4.000000,,,,0.000000,4.000000,4.000000,4.000000,4.000000,4.000000,,,,,,,,,,,,
1583521499.435931,64.000000,0.000000,4164.615234,4272.820313,4091.281982,4054.358887,4158.974121,450.000000,4.000000,,,,0.000000,4.000000,4.000000,4.000000,4.000000,4.000000,32.000000,0.000000,0.650833,0.125000,0.687500,0.296875,0.843763,-0.562509,-0.031250,-76.563667,-76.563667,38.281834
1583521499.443827,65.000000,0.000000,4168.205078,4264.615234,4095.897461,4058.974365,4148.717773,450.000000,4.000000,,,,0.000000,4.000000,4.000000,4.000000,4.000000,4.000000,,,,,,,,,,,,
1583521499.451525,66.000000,0.000000,4177.436035,4262.563965,4097.436035,4078.974365,4157.436035,1023.000000,4.000000,,,,0.000000,4.000000,4.000000,4.000000,4.000000,4.000000,33.000000,0.000000,0.647637,0.140625,0.687500,0.296875,0.843763,-0.562509,-0.031250,-76.563667,-76.563667,38.281834
1583521499.459421,67.000000,0.000000,4179.487305,4260.512695,4094.871826,4078.974365,4165.641113,450.000000,4.000000,,,,0.000000,4.000000,4.000000,4.000000,4.000000,4.000000,,,,,,,,,,,,
1583521499.467118,68.000000,0.000000,4176.410156,4252.307617,4087.179443,4063.589844,4166.666504,1023.000000,4.000000,,,,0.000000,4.000000,4.000000,4.000000,4.000000,4.000000,34.000000,0.000000,0.650833,0.125000,0.687500,0.296875,0.843763,-0.562509,-0.031250,-76.563667,-76.563667,38.281834
1583521499.475014,69.000000,0.000000,4170.256348,4250.256348,4088.205078,4064.615479,4163.077148,450.000000,4.000000,,,,0.000000,4.000000,4.000000,4.000000,4.000000,4.000000,,,,,,,,,,,,
1583521499.482711,70.000000,0.000000,4177.948730,4264.615234,4099.487305,4079.487061,4173.846191,1023.000000,4.000000,,,,0.000000,4.000000,4.000000,4.000000,4.000000,4.000000,35.000000,0.000000,0.650833,0.125000,0.687500,0.296875,0.843763,-0.562509,-0.031250,-76.563667,-76.563667,38.281834
1583521499.490607,71.000000,0.000000,4175.897461,4256.410156,4096.922852,4072.820557,4173.846191,450.000000,4.000000,,,,0.000000,4.000000,4.000000,4.000000,4.000000,4.000000,,,,,,,,,,,,
1583521499.498304,72.000000,0.000000,4164.102539,4250.256348,4096.922852,4066.153809,4165.641113,450.000000,4.000000,,,,0.000000,4.000000,4.000000,4.000000,4.000000,4.000000,36.000000,0.000000,0.650833,0.125000,0.687500,0.296875,0.843763,-0.562509,-0.031250,-76.563667,-76.563667,38.281834
1583521499.506201,73.000000,0.000000,4152.820313,4256.410156,4098.461426,4062.564209,4162.563965,295.000000,4.000000,,,,0.000000,4.000000,4.000000,4.000000,4.000000,4.000000,,,,,,,,,,,,
1583521499.514098,74.000000,0.000000,4156.922852,4264.615234,4104.615234,4075.897461,4166.666504,450.000000,4.000000,,,,0.000000,4.000000,4.000000,4.000000,4.000000,4.000000,37.000000,0.000000,0.650833,0.125000,0.687500,0.296875,0.843763,-0.562509,-0.031250,-76.563667,-76.563667,38.281834
1583521499.521994,75.000000,0.000000,4175.897461,4266.666504,4107.692383,4074.358887,4167.179688,1023.000000,4.000000,,,,0.000000,4.000000,4.000000,4.000000,4.000000,4.000000,,,,,,,,,,,,
1583521499.529692,76.000000,0.000000,4175.897461,4258.461426,4105.641113,4069.743652,4168.205078,450.000000,4.000000,,,,0.000000,4.000000,4.000000,4.000000,4.000000,4.000000,38.000000,0.000000,0.650833,0.125000,0.687500,0.296875,0.843763,-0.562509,-0.031250,-76.563667,-76.563667,38.281834
1583521499.537589,77.000000,0.000000,4156.410156,4254.358887,4100.512695,4064.615479,4173.846191,450.000000,4.000000,,,,0.000000,4.000000,4.000000,4.000000,4.000000,4.000000,,,,,,,,,,,,
1583521499.545486,78.000000,0.000000,4151.282227,4260.512695,4109.743652,4076.923096,4166.666504,450.000000,4.000000,,,,0.000000,4.000000,4.000000,4.000000,4.000000,4.000000,39.000000,0.000000,0.650833,0.125000,0.687500,0.296875,0.843763,-0.562509,-0.031250,-76.563667,-76.563667,38.281834
1583521499.553381,79.000000,0.000000,4158.461426,4270.769043,4104.615234,4067.692383,4157.436035,1023.000000,4.000000,,,,0.000000,4.000000,4.000000,4.000000,4.000000,4.000000,,,,,,,,,,,,
1583521499.561078,80.000000,0.000000,4136.410156,4252.307617,4078.974365,4051.794922,4147.179688,450.000000,4.000000,,,,0.000000,4.000000,4.000000,4.000000,4.000000,4.000000,40.000000,0.000000,0.650833,0.125000,0.687500,0.296875,0.843763,-0.562509,-0.031250,-76.563667,-76.563667,38.281834
1583521499.568973,81.000000,0.000000,4131.282227,4252.307617,4079.487061,4054.871826,4155.897461,450.000000,4.000000,,,,0.000000,4.000000,4.000000,4.000000,4.000000,4.000000,,,,,,,,,,,,
1583521499.576671,82.000000,0.000000,4142.563965,4256.410156,4095.897461,4062.051270,4157.436035,450.000000,4.000000,,,,0.000000,4.000000,4.000000,4.000000,4.000000,4.000000,41.000000,0.000000,0.650833,0.125000,0.687500,0.296875,0.843763,-0.562509,-0.031250,-76.563667,-76.563667,38.281834
1583521499.584568,83.000000,0.000000,4146.153809,4256.410156,4096.410156,4058.461426,4157.436035,1023.000000,4.000000,,,,0.000000,4.000000,4.000000,4.000000,4.000000,4.000000,,,,,,,,,,,,
1583521499.592266,84.000000,0.000000,4133.333496,4254.358887,4087.692383,4057.948730,4155.897461,450.000000,4.000000,,,,0.000000,4.000000,4.000000,4.000000,4.000000,4.000000,42.000000,0.000000,0.650833,0.125000,0.687500,0.296875,0.812512,-0.562509,-0.031250,-76.563667,-76.563667,38.281834
1583521499.600162,85.000000,0.000000,4141.538574,4264.615234,4092.307617,4065.128174,4163.077148,450.000000,4.000000,,,,0.000000,4.000000,4.000000,4.000000,4.000000,4.000000,,,,,,,,,,,,
1583521499.607859,86.000000,0.000000,4146.666504,4260.512695,4092.820557,4064.102539,4155.384766,450.000000,4.000000,,,,0.000000,4.000000,4.000000,4.000000,4.000000,4.000000,43.000000,0.000000,0.650833,0.125000,0.687500,0.296875,0.812512,-0.562509,-0.031250,-76.563667,-76.563667,38.281834
1583521499.615554,87.000000,0.000000,4146.153809,4260.512695,4102.563965,4075.384521,4153.846191,1023.000000,4.000000,,,,0.000000,4.000000,4.000000,4.000000,4.000000,4.000000,,,,,,,,,,,,
1583521499.623251,88.000000,0.000000,4151.794922,4264.615234,4111.794922,4072.307617,4168.717773,450.000000,4.000000,,,,0.000000,4.000000,4.000000,4.000000,4.000000,4.000000,44.000000,0.000000,0.650833,0.125000,0.687500,0.296875,0.812512,-0.531258,-0.031250,-76.563667,-76.563667,38.281834
1583521499.630946,89.000000,0.000000,4143.077148,4260.512695,4105.641113,4066.666748,4169.230957,450.000000,4.000000,,,,0.000000,4.000000,4.000000,4.000000,4.000000,4.000000,,,,,,,,,,,,
1583521499.638642,90.000000,0.000000,4120.000000,4258.461426,4096.410156,4060.512939,4146.666504,450.000000,4.000000,,,,0.000000,4.000000,4.000000,4.000000,4.000000,4.000000,45.000000,0.000000,0.650833,0.125000,0.687500,0.296875,0.812512,-0.531258,-0.062501,-76.563667,-76.563667,38.281834
1583521499.646338,91.000000,0.000000,4142.051270,4266.666504,4111.794922,4056.923096,4147.179688,1023.000000,4.000000,,,,0.000000,4.000000,4.000000,4.000000,4.000000,4.000000,,,,,,,,,,,,
1583521499.654034,92.000000,0.000000,4215.384766,4281.025879,4127.692383,4045.641113,4192.820313,450.000000,4.000000,,,,0.000000,4.000000,4.000000,4.000000,4.000000,4.000000,46.000000,0.000000,0.650833,0.125000,0.687500,0.296875,0.843763,-0.531258,-0.062501,-76.563667,-76.563667,38.281834
1583521499.661729,93.000000,0.000000,4263.077148,4278.974121,4116.410156,4052.307617,4215.897461,450.000000,4.000000,,,,0.000000,4.000000,4.000000,4.000000,4.000000,4.000000,,,,,,,,,,,,
1583521499.669426,94.000000,0.000000,4288.717773,4274.871582,4095.897461,4048.718018,4214.871582,450.000000,4.000000,,,,0.000000,4.000000,4.000000,4.000000,4.000000,4.000000,47.000000,0.000000,0.647637,0.140625,0.687500,0.296875,0.843763,-0.500008,-0.062501,-76.563667,-76.563667,38.281834
1583521499.677322,95.000000,0.000000,4324.102539,4270.769043,4098.974121,4044.102539,4231.794922,1023.000000,4.000000,,,,0.000000,4.000000,4.000000,4.000000,4.000000,4.000000,,,,,,,,,,,,
1583521499.685019,96.000000,0.000000,4355.384766,4276.922852,4113.846191,4043.076904,4251.794922,450.000000,4.000000,,,,0.000000,4.000000,4.000000,4.000000,4.000000,4.000000,48.000000,0.000000,0.647637,0.140625,0.687500,0.296875,0.875013,-0.531258,-0.062501,-76.563667,-76.563667,38.281834
1583521499.692915,97.000000,0.000000,4347.692383,4283.077148,4105.128418,4038.461426,4219.487305,450.000000,4.000000,,,,0.000000,4.000000,4.000000,4.000000,4.000000,4.000000,,,,,,,,,,,,
1583521499.700612,98.000000,0.000000,4338.461426,4287.179688,4077.435791,4025.641113,4187.692383,450.000000,4.000000,,,,0.000000,4.000000,4.000000,4.000000,4.000000,4.000000,49.000000,0.000000,0.647637,0.140625,0.687500,0.296875,0.875013,-0.531258,-0.062501,-76.563667,-76.563667,38.281834
1583521499.708509,99.000000,0.000000,4333.333496,4272.820313,4064.102539,4020.512939,4182.051270,1023.000000,4.000000,,,,0.000000,4.000000,4.000000,4.000000,4.000000,4.000000,,,,,,,,,,,,
1583521499.716406,100.000000,0.000000,4343.589844,4274.871582,4076.923096,4036.410156,4186.153809,450.000000,4.000000,,,,0.000000,4.000000,4.000000,4.000000,4.000000,4.000000,50.000000,0.000000,0.647637,0.140625,0.687500,0.296875,0.843763,-0.531258,-0.031250,-76.563667,-76.563667,38.281834
1583521499.724302,101.000000,0.000000,4348.205078,4299.487305,4098.974121,4051.794922,4175.384766,450.000000,4.000000,,,,0.000000,4.000000,4.000000,4.000000,4.000000,4.000000,,,,,,,,,,,,
1583521499.731999,102.000000,0.000000,4343.589844,4309.743652,4114.358887,4056.410156,4169.230957,450.000000,4.000000,,,,0.000000,4.000000,4.000000,4.000000,4.000000,4.000000,51.000000,0.000000,0.647637,0.140625,0.687500,0.296875,0.843763,-0.562509,-0.031250,-76.563667,-76.563667,38.281834
1583521499.739894,103.000000,0.000000,4330.769043,4289.230957,4104.615234,4041.538574,4164.102539,1023.000000,4.000000,,,,0.000000,4.000000,4.000000,4.000000,4.000000,4.000000,,,,,,,,,,,,
1583521499.747592,104.000000,0.000000,4322.563965,4283.077148,4087.692383,4039.487061,4156.922852,450.000000,4.000000,,,,0.000000,4.000000,4.000000,4.000000,4.000000,4.000000,52.000000,0.000000,0.647637,0.140625,0.687500,0.296875,0.843763,-0.593759,-0.031250,-76.563667,-76.563667,38.281834
1583521499.755489,105.000000,0.000000,4314.358887,4295.384766,4072.307617,4036.410156,4146.666504,450.000000,4.000000,,,,0.000000,4.000000,4.000000,4.000000,4.000000,4.000000,,,,,,,,,,,,
1583521499.763387,106.000000,0.000000,4302.563965,4287.179688,4073.846191,4046.666748,4139.487305,450.000000,4.000000,,,,0.000000,4.000000,4.000000,4.000000,4.000000,4.000000,53.000000,0.000000,0.647637,0.140625,0.687500,0.296875,0.843763,-0.593759,-0.031250,-76.563667,-76.563667,38.281834
1583521499.771283,107.000000,0.000000,4301.538574,4274.871582,4088.718018,4056.923096,4143.589844,1023.000000,4.000000,,,,0.000000,4.000000,4.000000,4.000000,4.000000,4.000000,,,,,,,,,,,,
1583521499.779181,108.000000,0.000000,4307.692383,4276.922852,4095.897461,4060.000000,4146.666504,450.000000,4.000000,,,,0.000000,4.000000,4.000000,4.000000,4.000000,4.000000,54.000000,0.000000,0.647637,0.140625,0.687500,0.296875,0.843763,-0.593759,-0.031250,-76.563667,-76.563667,38.281834
1583521499.787077,109.000000,0.000000,4329.743652,4291.282227,4093.846191,4048.718018,4161.538574,450.000000,4.000000,,,,0.000000,4.000000,4.000000,4.000000,4.000000,4.000000,,,,,,,,,,,,
1583521499.794775,110.000000,0.000000,4346.666504,4285.128418,4106.666504,4048.718018,4180.512695,450.000000,4.000000,,,,0.000000,4.000000,4.000000,4.000000,4.000000,4.000000,55.000000,0.000000,0.654574,0.140625,0.687500,0.281250,0.843763,-0.593759,-0.031250,-76.563667,-76.563667,38.281834
1583521499.802673,111.000000,0.000000,4360.000000,4287.179688,4120.000000,4043.589844,4205.128418,1023.000000,4.000000,,,,0.000000,4.000000,4.000000,4.000000,4.000000,4.000000,,,,,,,,,,,,
1583521499.810569,112.000000,0.000000,4387.692383,4299.487305,4116.922852,4044.102539,4232.820313,450.000000,4.000000,,,,0.000000,4.000000,4.000000,4.000000,4.000000,4.000000,56.000000,0.000000,0.654574,0.140625,0.687500,0.281250,0.812512,-0.562509,-0.031250,-76.563667,-76.563667,38.281834
1583521499.818266,113.000000,0.000000,4427.692383,4305.641113,4108.717773,4049.230713,4264.102539,450.000000,4.000000,,,,0.000000,4.000000,4.000000,4.000000,4.000000,4.000000,,,,,,,,,,,,
1583521499.825962,114.000000,0.000000,4421.025879,4287.179688,4094.358887,4043.076904,4265.128418,450.000000,4.000000,,,,0.000000,4.000000,4.000000,4.000000,4.000000,4.000000,57.000000,0.000000,0.654574,0.140625,0.687500,0.281250,0.843763,-0.562509,-0.031250,-76.563667,-76.563667,38.281834
1583521499.833657,115.000000,0.000000,4406.666504,4291.282227,4090.769287,4042.051270,4269.743652,1023.000000,4.000000,,,,0.000000,4.000000,4.000000,4.000000,4.000000,4.000000,,,,,,,,,,,,
1583521499.841354,116.000000,0.000000,4412.307617,4297.436035,4097.436035,4045.641113,4280.000000,450.000000,4.000000,,,,0.000000,4.000000,4.000000,4.000000,4.000000,4.000000,58.000000,0.000000,0.654574,0.140625,0.687500,0.281250,0.843763,-0.531258,-0.031250,-76.563667,-76.563667,38.281834
1583521499.849049,117.000000,0.000000,4407.179688,4287.179688,4103.077148,4045.641113,4271.282227,450.000000,4.000000,,,,0.000000,4.000000,4.000000,4.000000,4.000000,4.000000,,,,,,,,,,,,
1583521499.856745,118.000000,0.000000,4365.128418,4278.974121,4097.948730,4037.948730,4236.410156,450.000000,4.000000,,,,0.000000,4.000000,4.000000,4.000000,4.000000,4.000000,59.000000,0.000000,0.654574,0.140625,0.687500,0.281250,0.843763,-0.500008,-0.031250,-76.563667,-76.563667,38.281834
1583521499.864440,119.000000,0.000000,4334.871582,4283.077148,4087.179443,4041.538574,4210.769043,1023.000000,4.000000,,,,0.000000,4.000000,4.000000,4.000000,4.000000,4.000000,,,,,,,,,,,,
1583521499.872138,120.000000,0.000000,4314.358887,4266.666504,4062.564209,4032.820557,4188.205078,450.000000,4.000000,,,,0.000000,4.000000,4.000000,4.000000,4.000000,4.000000,60.000000,0.000000,0.654574,0.140625,0.687500,0.281250,0.843763,-0.500008,0.000000,-76.563667,-76.563667,38.281834
1583521499.880034,121.000000,0.000000,4304.615234,4260.512695,4070.769287,4039.487061,4178.461426,450.000000,4.000000,,,,0.000000,4.000000,4.000000,4.000000,4.000000,4.000000,,,,,,,,,,,,
1583521499.887731,122.000000,0.000000,4314.358887,4278.974121,4103.589844,4047.692383,4189.230957,450.000000,4.000000,,,,0.000000,4.000000,4.000000,4.000000,4.000000,4.000000,61.000000,0.000000,0.654574,0.140625,0.687500,0.281250,0.843763,-0.531258,-0.031250,-76.563667,-76.563667,38.281834
1583521499.895627,123.000000,0.000000,4303.589844,4272.820313,4095.384521,4046.153809,4166.666504,1023.000000,4.000000,,,,0.000000,4.000000,4.000000,4.000000,4.000000,4.000000,,,,,,,,,,,,
1583521499.903325,124.000000,0.000000,4285.128418,4260.512695,4067.692383,4037.435791,4135.384766,450.000000,4.000000,,,,0.000000,4.000000,4.000000,4.000000,4.000000,4.000000,62.000000,0.000000,0.654574,0.140625,0.687500,0.281250,0.843763,-0.500008,0.000000,-76.563667,-76.563667,38.281834
1583521499.911222,125.000000,0.000000,4283.077148,4272.820313,4078.461426,4047.692383,4138.461426,450.000000,4.000000,,,,0.000000,4.000000,4.000000,4.000000,4.000000,4.000000,,,,,,,,,,,,
1583521499.919119,126.000000,0.000000,4288.717773,4287.179688,4088.205078,4046.153809,4149.230957,450.000000,4.000000,,,,0.000000,4.000000,4.000000,4.000000,4.000000,4.000000,63.000000,0.000000,0.654574,0.140625,0.687500,0.281250,0.843763,-0.500008,-0.031250,-76.563667,-76.563667,38.281834
1583521499.927014,127.000000,0.000000,4275.897461,4272.820313,4072.820557,4041.025635,4134.871582,243.000000,4.000000,,,,0.000000,4.000000,4.000000,4.000000,4.000000,4.000000,,,,,,,,,,,,
1583521499.934711,0.000000,0.000000,4279.487305,4272.820313,4085.641113,4055.897461,4144.615234,450.000000,4.000000,,,,0.000000,4.000000,4.000000,4.000000,4.000000,4.000000,0.000000,0.000000,0.654574,0.140625,0.687500,0.281250,0.843763,-0.500008,-0.031250,-76.563667,-76.563667,38.281834
1583521499.942607,1.000000,0.000000,4284.102539,4283.077148,4110.256348,4069.230713,4156.922852,450.000000,4.000000,,,,0.000000,4.000000,4.000000,4.000000,4.000000,4.000000,,,,,,,,,,,,
1583521499.950304,2.000000,0.000000,4278.974121,4289.230957,4100.512695,4048.205078,4150.769043,1023.000000,4.000000,,,,0.000000,4.000000,4.000000,4.000000,4.000000,4.000000,1.000000,0.000000,0.654574,0.140625,0.687500,0.281250,0.843763,-0.500008,0.000000,-76.563667,-76.563667,38.281834
1583521499.958199,3.000000,0.000000,4263.589844,4278.974121,4087.179443,4037.948730,4137.436035,450.000000,4.000000,,,,0.000000,4.000000,4.000000,4.000000,4.000000,4.000000,,,,,,,,,,,,
1583521499.965897,4.000000,0.000000,4266.666504,4285.128418,4106.153809,4064.102539,4150.256348,1023.000000,4.000000,,,,0.000000,4.000000,4.000000,4.000000,4.000000,4.000000,2.000000,0.000000,0.654574,0.140625,0.687500,0.281250,0.843763,-0.531258,-0.031250,-76.563667,-76.563667,38.281834
1583521499.973794,5.000000,0.000000,4277.436035,4297.436035,4116.410156,4058.974365,4165.128418,450.000000,4.000000,,,,0.000000,4.000000,4.000000,4.000000,4.000000,4.000000,,,,,,,,,,,,
1583521499.981691,6.000000,0.000000,4283.077148,4301.538574,4114.871582,4048.718018,4165.128418,1023.000000,4.000000,,,,0.000000,4.000000,4.000000,4.000000,4.000000,4.000000,3.000000,0.000000,0.654574,0.140625,0.687500,0.281250,0.843763,-0.500008,-0.031250,-76.563667,-76.563667,38.281834
1583521499.989588,7.000000,0.000000,4276.922852,4293.333496,4103.589844,4048.718018,4144.102539,450.000000,4.000000,,,,0.000000,4.000000,4.000000,4.000000,4.000000,4.000000,,,,,,,,,,,,
1583521499.997286,8.000000,0.000000,4262.563965,4295.384766,4088.718018,4046.153809,4127.179688,450.000000,4.000000,,,,0.000000,4.000000,4.000000,4.000000,4.000000,4.000000,4.000000,0.000000,0.654574,0.140625,0.687500,0.281250,0.843763,-0.531258,-0.031250,-76.563667,-76.563667,38.281834
1583521500.005182,9.000000,0.000000,4252.820313,4293.333496,4082.564209,4030.256348,4125.128418,288.000000,4.000000,,,,0.000000,4.000000,4.000000,4.000000,4.000000,4.000000,,,,,,,,,,,,
1583521500.012880,10.000000,0.000000,4239.487305,4281.025879,4092.307617,4034.358887,4108.717773,450.000000,4.000000,,,,0.000000,4.000000,4.000000,4.000000,4.000000,4.000000,5.000000,0.000000,0.654574,0.140625,0.687500,0.281250,0.843763,-0.531258,-0.031250,-76.563667,-76.563667,38.281834
1583521500.020776,11.000000,0.000000,4232.820313,4281.025879,4097.948730,4036.923096,4108.717773,1023.000000,4.000000,,,,0.000000,4.000000,4.000000,4.000000,4.000000,4.000000,,,,,,,,,,,,
1583521500.028472,12.000000,0.000000,4254.358887,4289.230957,4105.641113,4052.820557,4157.948730,450.000000,4.000000,,,,0.000000,4.000000,4.000000,4.000000,4.000000,4.000000,6.000000,0.000000,0.654574,0.140625,0.687500,0.281250,0.843763,-0.531258,-0.031250,-76.563667,-76.563667,38.281834
1583521500.036168,13.000000,0.000000,4296.410156,4295.384766,4115.384766,4066.666748,4222.051270,450.000000,4.000000,,,,0.000000,4.000000,4.000000,4.000000,4.000000,4.000000,,,,,,,,,,,,
1583521500.043865,14.000000,0.000000,4295.897461,4283.077148,4114.871582,4062.564209,4223.077148,450.000000,4.000000,,,,0.000000,4.000000,4.000000,4.000000,4.000000,4.000000,7.000000,0.000000,0.654574,0.140625,0.687500,0.281250,0.843763,-0.562509,-0.031250,-76.563667,-76.563667,38.281834
1583521500.051761,15.000000,0.000000,4291.794922,4295.384766,4116.922852,4053.333252,4217.948730,1023.000000,4.000000,,,,0.000000,4.000000,4.000000,4.000000,4.000000,4.000000,,,,,,,,,,,,
1583521500.059460,16.000000,0.000000,4304.615234,4301.538574,4125.128418,4058.974365,4232.820313,0.000000,4.000000,,,,0.000000,4.000000,4.000000,4.000000,4.000000,4.000000,8.000000,0.000000,0.654574,0.140625,0.687500,0.281250,0.843763,-0.562509,-0.031250,-76.563667,-76.563667,38.281834
1583521500.067357,17.000000,0.000000,4291.794922,4293.333496,4120.000000,4058.461426,4221.025879,0.000000,4.000000,,,,0.000000,4.000000,4.000000,4.000000,4.000000,4.000000,,,,,,,,,,,,
1583521500.075254,18.000000,0.000000,4259.487305,4276.922852,4098.974121,4050.769287,4194.871582,0.000000,4.000000,,,,0.000000,4.000000,4.000000,4.000000,4.000000,4.000000,9.000000,0.000000,0.654574,0.140625,0.687500,0.281250,0.843763,-0.562509,-0.031250,-76.563667,-76.563667,38.281834
1583521500.083150,19.000000,0.000000,4262.563965,4291.282227,4102.051270,4051.794922,4206.666504,0.000000,4.000000,,,,0.000000,4.000000,4.000000,4.000000,4.000000,4.000000,,,,,,,,,,,,
1583521500.090847,20.000000,0.000000,4260.000000,4303.589844,4113.846191,4044.615479,4217.436035,0.000000,4.000000,,,,0.000000,4.000000,4.000000,4.000000,4.000000,4.000000,10.000000,0.000000,0.654574,0.140625,0.687500,0.281250,0.843763,-0.562509,-0.031250,-76.563667,-76.563667,38.281834
1583521500.098743,21.000000,0.000000,4249.230957,4301.538574,4108.205078,4045.128174,4217.948730,0.000000,4.000000,,,,0.000000,4.000000,4.000000,4.000000,4.000000,4.000000,,,,,,,,,,,,
1583521500.106440,22.000000,0.000000,4235.897461,4283.077148,4088.718018,4046.666748,4203.589844,0.000000,4.000000,,,,0.000000,4.000000,4.000000,4.000000,4.000000,4.000000,11.000000,0.000000,0.654574,0.140625,0.687500,0.281250,0.843763,-0.562509,-0.031250,-76.563667,-76.563667,38.281834
1583521500.114336,23.000000,0.000000,4230.769043,4272.820313,4085.128174,4053.333252,4182.563965,0.000000,4.000000,,,,0.000000,4.000000,4.000000,4.000000,4.000000,4.000000,,,,,,,,,,,,
1583521500.122033,24.000000,0.000000,4246.153809,4287.179688,4098.461426,4054.358887,4191.282227,0.000000,4.000000,,,,0.000000,4.000000,4.000000,4.000000,4.000000,4.000000,12.000000,0.000000,0.654574,0.140625,0.687500,0.281250,0.843763,-0.562509,-0.031250,-76.563667,-76.563667,38.281834
1583521500.129928,25.000000,0.000000,4265.641113,4299.487305,4118.974121,4068.205078,4213.333496,0.000000,4.000000,,,,0.000000,4.000000,4.000000,4.000000,4.000000,4.000000,,,,,,,,,,,,
1583521500.137625,26.000000,0.000000,4251.794922,4293.333496,4111.794922,4058.974365,4197.436035,0.000000,4.000000,,,,0.000000,4.000000,4.000000,4.000000,4.000000,4.000000,13.000000,0.000000,0.654574,0.140625,0.687500,0.281250,0.843763,-0.562509,-0.031250,-76.563667,-76.563667,38.281834
1583521500.145521,27.000000,0.000000,4217.948730,4276.922852,4090.769287,4043.589844,4161.025879,0.000000,4.000000,,,,0.000000,4.000000,4.000000,4.000000,4.000000,4.000000,,,,,,,,,,,,
1583521500.153218,28.000000,0.000000,4225.641113,4283.077148,4098.974121,4044.615479,4170.256348,0.000000,4.000000,,,,0.000000,4.000000,4.000000,4.000000,4.000000,4.000000,14.000000,0.000000,0.654574,0.140625,0.687500,0.281250,0.843763,-0.562509,-0.031250,-76.563667,-76.563667,38.281834
1583521500.161113,29.000000,0.000000,4251.282227,4293.333496,4121.538574,4068.718018,4198.974121,0.000000,4.000000,,,,0.000000,4.000000,4.000000,4.000000,4.000000,4.000000,,,,,,,,,,,,
1583521500.168810,30.000000,0.000000,4258.974121,4299.487305,4123.589844,4078.461426,4213.846191,0.000000,4.000000,,,,0.000000,4.000000,4.000000,4.000000,4.000000,4.000000,15.000000,0.000000,0.654574,0.140625,0.687500,0.281250,0.843763,-0.531258,-0.031250,-76.563667,-76.563667,38.281834
1583521500.176505,31.000000,0.000000,4244.102539,4289.230957,4108.205078,4063.589844,4194.358887,0.000000,4.000000,,,,0.000000,4.000000,4.000000,4.000000,4.000000,4.000000,,,,,,,,,,,,
1583521500.184203,32.000000,0.000000,4251.794922,4289.230957,4103.589844,4045.641113,4192.820313,0.000000,4.000000,,,,0.000000,4.000000,4.000000,4.000000,4.000000,4.000000,16.000000,0.000000,0.654574,0.140625,0.687500,0.281250,0.843763,-0.562509,-0.031250,-76.563667,-76.563667,38.281834
1583521500.192100,33.000000,0.000000,4267.179688,4291.282227,4120.000000,4057.435791,4208.205078,0.000000,4.000000,,,,0.000000,4.000000,4.000000,4.000000,4.000000,4.000000,,,,,,,,,,,,
1583521500.199797,34.000000,0.000000,4268.717773,4295.384766,4127.179688,4067.179443,4214.871582,0.000000,4.000000,,,,0.000000,4.000000,4.000000,4.000000,4.000000,4.000000,17.000000,0.000000,0.654574,0.140625,0.687500,0.281250,0.843763,-0.531258,-0.031250,-76.563667,-76.563667,38.281834
1583521500.207694,35.000000,0.000000,4242.563965,4285.128418,4100.000000,4041.538574,4197.436035,0.000000,4.000000,,,,0.000000,4.000000,4.000000,4.000000,4.000000,4.000000,,,,,,,,,,,,
1583521500.215391,36.000000,0.000000,4233.846191,4283.077148,4089.743652,4038.461426,4194.358887,0.000000,4.000000,,,,0.000000,4.000000,4.000000,4.000000,4.000000,4.000000,18.000000,0.000000,0.654574,0.140625,0.687500,0.281250,0.843763,-0.562509,-0.031250,-76.563667,-76.563667,38.281834
1583521500.223289,37.000000,0.000000,4252.307617,4295.384766,4107.179688,4058.461426,4214.358887,0.000000,4.000000,,,,0.000000,4.000000,4.000000,4.000000,4.000000,4.000000,,,,,,,,,,,,
1583521500.231185,38.000000,0.000000,4255.897461,4297.436035,4110.256348,4068.718018,4222.051270,0.000000,4.000000,,,,0.000000,4.000000,4.000000,4.000000,4.000000,4.000000,19.000000,0.000000,0.654574,0.140625,0.687500,0.281250,0.843763,-0.562509,-0.031250,-76.563667,-76.563667,38.281834
1583521500.238880,39.000000,0.000000,4238.461426,4285.128418,4095.384521,4049.743652,4212.820313,0.000000,4.000000,,,,0.000000,4.000000,4.000000,4.000000,4.000000,4.000000,,,,,,,,,,,,
1583521500.246576,40.000000,0.000000,4234.871582,4283.077148,4094.871826,4052.820557,4214.358887,0.000000,4.000000,,,,0.000000,4.000000,4.000000,4.000000,4.000000,4.000000,20.000000,0.000000,0.654574,0.140625,0.687500,0.281250,0.843763,-0.562509,-0.031250,-76.563667,-76.563667,38.281834
1583521500.254272,41.000000,0.000000,4234.871582,4289.230957,4093.846191,4052.820557,4215.897461,0.000000,4.000000,,,,0.000000,4.000000,4.000000,4.000000,4.000000,4.000000,,,,,,,,,,,,
1583521500.261968,42.000000,0.000000,4222.563965,4287.179688,4085.128174,4052.820557,4206.666504,0.000000,4.000000,,,,0.000000,4.000000,4.000000,4.000000,4.000000,4.000000,21.000000,0.000000,0.654574,0.140625,0.687500,0.281250,0.843763,-0.531258,-0.031250,-76.563667,-76.563667,38.281834
1583521500.269663,43.000000,0.000000,4225.641113,4291.282227,4080.000000,4049.230713,4217.436035,0.000000,4.000000,,,,0.000000,4.000000,4.000000,4.000000,4.000000,4.000000,,,,,,,,,,,,
1583521500.277360,44.000000,0.000000,4227.179688,4297.436035,4089.743652,4054.871826,4228.205078,0.000000,4.000000,,,,0.000000,4.000000,4.000000,4.000000,4.000000,4.000000,22.000000,0.000000,0.654574,0.140625,0.687500,0.281250,0.843763,-0.562509,-0.031250,-76.563667,-76.563667,38.281834
1583521500.285256,45.000000,0.000000,4234.358887,4303.589844,4105.641113,4057.435791,4234.358887,0.000000,4.000000,,,,0.000000,4.000000,4.000000,4.000000,4.000000,4.000000,,,,,,,,,,,,
1583521500.292953,46.000000,0.000000,4238.461426,4301.538574,4104.615234,4055.897461,4229.743652,0.000000,4.000000,,,,0.000000,4.000000,4.000000,4.000000,4.000000,4.000000,23.000000,0.000000,0.654574,0.140625,0.687500,0.281250,0.843763,-0.531258,-0.031250,-76.563667,-76.563667,38.281834
1583521500.300849,47.000000,0.000000,4233.846191,4297.436035,4093.333252,4049.230713,4219.487305,0.000000,4.000000,,,,0.000000,4.000000,4.000000,4.000000,4.000000,4.000000,,,,,,,,,,,,
1583521500.308547,48.000000,0.000000,4224.615234,4287.179688,4086.153809,4043.076904,4209.743652,0.000000,4.000000,,,,0.000000,4.000000,4.000000,4.000000,4.000000,4.000000,24.000000,0.000000,0.654574,0.140625,0.687500,0.281250,0.843763,-0.562509,-0.031250,-76.563667,-76.563667,38.281834
1583521500.316444,49.000000,0.000000,4235.384766,4295.384766,4094.871826,4051.281982,4232.820313,0.000000,4.000000,,,,0.000000,4.000000,4.000000,4.000000,4.000000,4.000000,,,,,,,,,,,,
1583521500.324340,50.000000,0.000000,4231.794922,4303.589844,4100.000000,4061.538574,4239.487305,0.000000,4.000000,,,,0.000000,4.000000,4.000000,4.000000,4.000000,4.000000,25.000000,0.000000,0.654574,0.140625,0.687500,0.281250,0.843763,-0.531258,-0.031250,-76.563667,-76.563667,38.281834
1583521500.332236,51.000000,0.000000,4223.077148,4301.538574,4095.384521,4061.538574,4230.769043,0.000000,4.000000,,,,0.000000,4.000000,4.000000,4.000000,4.000000,4.000000,,,,,,,,,,,,
1583521500.339932,52.000000,0.000000,4231.794922,4295.384766,4098.461426,4059.487061,4245.641113,0.000000,4.000000,,,,0.000000,4.000000,4.000000,4.000000,4.000000,4.000000,26.000000,0.000000,0.654574,0.140625,0.687500,0.281250,0.843763,-0.531258,-0.031250,-76.563667,-76.563667,38.281834
1583521500.347626,53.000000,0.000000,4245.128418,4303.589844,4115.384766,4070.769287,4267.179688,0.000000,4.000000,,,,0.000000,4.000000,4.000000,4.000000,4.000000,4.000000,,,,,,,,,,,,
1583521500.355323,54.000000,0.000000,4218.461426,4291.282227,4097.436035,4049.230713,4242.051270,0.000000,4.000000,,,,0.000000,4.000000,4.000000,4.000000,4.000000,4.000000,27.000000,0.000000,0.654574,0.140625,0.687500,0.281250,0.843763,-0.562509,-0.031250,-76.563667,-76.563667,38.281834
1583521500.363219,55.000000,0.000000,4191.282227,4268.717773,4074.871826,4044.102539,4206.153809,0.000000,4.000000,,,,0.000000,4.000000,4.000000,4.000000,4.000000,4.000000,,,,,,,,,,,,
1583521500.370916,56.000000,0.000000,4216.410156,4274.871582,4089.230713,4067.179443,4222.563965,0.000000,4.000000,,,,0.000000,4.000000,4.000000,4.000000,4.000000,4.000000,28.000000,0.000000,0.654574,0.140625,0.687500,0.281250,0.843763,-0.531258,-0.031250,-76.563667,-76.563667,38.281834
1583521500.378813,57.000000,0.000000,4243.077148,4295.384766,4102.051270,4077.435791,4249.230957,0.000000,4.000000,,,,0.000000,4.000000,4.000000,4.000000,4.000000,4.000000,,,,,,,,,,,,
1583521500.386709,58.000000,0.000000,4234.871582,4295.384766,4082.051270,4050.256348,4239.487305,0.000000,4.000000,,,,0.000000,4.000000,4.000000,4.000000,4.000000,4.000000,29.000000,0.000000,0.654574,0.140625,0.687500,0.281250,0.843763,-0.531258,-0.031250,-76.563667,-76.563667,38.281834
1583521500.394405,59.000000,0.000000,4216.922852,4281.025879,4073.846191,4044.102539,4211.282227,0.000000,4.000000,,,,0.000000,4.000000,4.000000,4.000000,4.000000,4.000000,,,,,,,,,,,,
1583521500.402102,60.000000,0.000000,4222.563965,4289.230957,4085.641113,4054.358887,4212.307617,0.000000,4.000000,,,,0.000000,4.000000,4.000000,4.000000,4.000000,4.000000,30.000000,0.000000,0.654574,0.140625,0.687500,0.281250,0.843763,-0.531258,-0.031250,-76.563667,-76.563667,38.281834
1583521500.409999,61.000000,0.000000,4228.717773,4293.333496,4090.769287,4064.102539,4222.563965,0.000000,4.000000,,,,0.000000,4.000000,4.000000,4.000000,4.000000,4.000000,,,,,,,,,,,,
1583521500.417696,62.000000,0.000000,4246.666504,4287.179688,4094.358887,4060.000000,4239.487305,0.000000,4.000000,,,,0.000000,4.000000,4.000000,4.000000,4.000000,4.000000,31.000000,0.000000,0.654574,0.140625,0.687500,0.281250,0.843763,-0.531258,0.000000,-76.563667,-76.563667,38.281834
1583521500.425592,63.000000,0.000000,4262.051270,4283.077148,4097.948730,4046.153809,4247.692383,0.000000,4.000000,,,,0.000000,4.000000,4.000000,4.000000,4.000000,4.000000,,,,,,,,,,,,
1583521500.433290,64.000000,0.000000,4272.820313,4307.692383,4106.153809,4051.794922,4251.282227,450.000000,4.000000,,,,0.000000,4.000000,4.000000,4.000000,4.000000,4.000000,32.000000,0.000000,0.654574,0.140625,0.687500,0.281250,0.843763,-0.531258,-0.031250,-76.563667,-76.563667,38.281834
1583521500.441186,65.000000,0.000000,4276.922852,4320.000000,4112.820313,4070.769287,4253.846191,450.000000,4.000000,,,,0.000000,4.000000,4.000000,4.000000,4.000000,4.000000,,,,,,,,,,,,
1583521500.448884,66.000000,0.000000,4295.897461,4309.743652,4109.743652,4071.794922,4270.769043,1023.000000,4.000000,,,,0.000000,4.000000,4.000000,4.000000,4.000000,4.000000,33.000000,0.000000,0.654574,0.140625,0.687500,0.281250,0.843763,-0.531258,-0.031250,-76.563667,-76.563667,38.281834
1583521500.456780,67.000000,0.000000,4306.153809,4299.487305,4098.461426,4049.230713,4270.769043,450.000000,4.000000,,,,0.000000,4.000000,4.000000,4.000000,4.000000,4.000000,,,,,,,,,,,,
1583521500.464477,68.000000,0.000000,4303.589844,4303.589844,4110.256348,4052.820557,4261.538574,1023.000000,4.000000,,,,0.000000,4.000000,4.000000,4.000000,4.000000,4.000000,34.000000,0.000000,0.654574,0.140625,0.687500,0.281250,0.843763,-0.531258,-0.031250,-76.563667,-76.563667,38.281834
1583521500.472373,69.000000,0.000000,4304.102539,4309.743652,4128.717773,4065.641113,4262.051270,450.000000,4.000000,,,,0.000000,4.000000,4.000000,4.000000,4.000000,4.000000,,,,,,,,,,,,
1583521500.480070,70.000000,0.000000,4306.153809,4305.641113,4129.743652,4065.641113,4262.051270,1023.000000,4.000000,,,,0.000000,4.000000,4.000000,4.000000,4.000000,4.000000,35.000000,0.000000,0.654574,0.140625,0.687500,0.281250,0.843763,-0.531258,-0.031250,-76.563667,-76.563667,38.281834
1583521500.487966,71.000000,0.000000,4289.230957,4297.436035,4122.563965,4049.743652,4255.384766,450.000000,4.000000,,,,0.000000,4.000000,4.000000,4.000000,4.000000,4.000000,,,,,,,,,,,,
1583521500.495663,72.000000,0.000000,4263.589844,4295.384766,4122.563965,4058.974365,4243.077148,450.000000,4.000000,,,,0.000000,4.000000,4.000000,4.000000,4.000000,4.000000,36.000000,0.000000,0.654574,0.140625,0.687500,0.281250,0.843763,-0.531258,-0.031250,-76.563667,-76.563667,38.281834
1583521500.503559,73.000000,0.000000,4255.384766,4303.589844,4111.794922,4055.384521,4224.615234,286.000000,4.000000,,,,0.000000,4.000000,4.000000,4.000000,4.000000,4.000000,,,,,,,,,,,,
1583521500.511257,74.000000,0.000000,4249.743652,4295.384766,4101.538574,4049.743652,4201.538574,450.000000,4.000000,,,,0.000000,4.000000,4.000000,4.000000,4.000000,4.000000,37.000000,0.000000,0.654574,0.140625,0.687500,0.281250,0.843763,-0.562509,-0.031250,-76.563667,-76.563667,38.281834
1583521500.519154,75.000000,0.000000,4264.615234,4295.384766,4105.128418,4057.948730,4217.436035,1023.000000,4.000000,,,,0.000000,4.000000,4.000000,4.000000,4.000000,4.000000,,,,,,,,,,,,
1583521500.527051,76.000000,0.000000,4289.743652,4305.641113,4108.205078,4067.179443,4248.717773,450.000000,4.000000,,,,0.000000,4.000000,4.000000,4.000000,4.000000,4.000000,38.000000,0.000000,0.654574,0.140625,0.687500,0.281250,0.843763,-0.562509,-0.031250,-76.563667,-76.563667,38.281834
1583521500.534947,77.000000,0.000000,4301.538574,4309.743652,4103.077148,4056.410156,4257.948730,450.000000,4.000000,,,,0.000000,4.000000,4.000000,4.000000,4.000000,4.000000,,,,,,,,,,,,
1583521500.542843,78.000000,0.000000,4290.256348,4291.282227,4092.820557,4053.333252,4239.487305,450.000000,4.000000,,,,0.000000,4.000000,4.000000,4.000000,4.000000,4.000000,39.000000,0.000000,0.654574,0.140625,0.687500,0.281250,0.843763,-0.562509,-0.031250,-76.563667,-76.563667,38.281834
1583521500.550537,79.000000,0.000000,4305.128418,4291.282227,4091.794922,4062.051270,4243.589844,1023.000000,4.000000,,,,0.000000,4.000000,4.000000,4.000000,4.000000,4.000000,,,,,,,,,,,,
1583521500.558234,80.000000,0.000000,4329.743652,4293.333496,4100.512695,4061.025635,4261.025879,450.000000,4.000000,,,,0.000000,4.000000,4.000000,4.000000,4.000000,4.000000,40.000000,0.000000,0.654574,0.140625,0.687500,0.281250,0.812512,-0.531258,0.000000,-76.563667,-76.563667,38.281834
1583521500.566129,81.000000,0.000000,4338.461426,4289.230957,4105.128418,4062.051270,4272.307617,450.000000,4.000000,,,,0.000000,4.000000,4.000000,4.000000,4.000000,4.000000,,,,,,,,,,,,
1583521500.573826,82.000000,0.000000,4326.153809,4285.128418,4097.948730,4053.846191,4261.538574,450.000000,4.000000,,,,0.000000,4.000000,4.000000,4.000000,4.000000,4.000000,41.000000,0.000000,0.654574,0.140625,0.687500,0.281250,0.875013,-0.531258,-0.031250,-76.563667,-76.563667,38.281834
1583521500.581522,83.000000,0.000000,4320.000000,4295.384766,4118.461426,4045.641113,4252.307617,1023.000000,4.000000,,,,0.000000,4.000000,4.000000,4.000000,4.000000,4.000000,,,,,,,,,,,,
1583521500.589219,84.000000,0.000000,4321.538574,4301.538574,4144.615234,4046.153809,4258.974121,450.000000,4.000000,,,,0.000000,4.000000,4.000000,4.000000,4.000000,4.000000,42.000000,0.000000,0.654574,0.140625,0.687500,0.281250,0.843763,-0.531258,0.000000,-76.563667,-76.563667,38.281834
1583521500.597116,85.000000,0.000000,4331.794922,4293.333496,4124.102539,4059.487061,4264.102539,450.000000,4.000000,,,,0.000000,4.000000,4.000000,4.000000,4.000000,4.000000,,,,,,,,,,,,
1583521500.604913,86.000000,0.000000,4338.461426,4278.974121,4078.461426,4046.153809,4249.230957,450.000000,4.000000,,,,0.000000,4.000000,4.000000,4.000000,4.000000,4.000000,43.000000,0.000000,0.654574,0.140625,0.687500,0.281250,0.843763,-0.531258,0.000000,-76.563667,-76.563667,38.281834
1583521500.612809,87.000000,0.000000,4341.538574,4283.077148,4083.589844,4048.718018,4241.025879,1023.000000,4.000000,,,,0.000000,4.000000,4.000000,4.000000,4.000000,4.000000,,,,,,,,,,,,
1583521500.620507,88.000000,0.000000,4350.769043,4299.487305,4114.871582,4055.384521,4253.333496,450.000000,4.000000,,,,0.000000,4.000000,4.000000,4.000000,4.000000,4.000000,44.000000,0.000000,0.654574,0.140625,0.687500,0.281250,0.843763,-0.531258,-0.031250,-76.563667,-76.563667,38.281834
1583521500.628403,89.000000,0.000000,4345.641113,4297.436035,4118.461426,4061.025635,4254.358887,450.000000,4.000000,,,,0.000000,4.000000,4.000000,4.000000,4.000000,4.000000,,,,,,,,,,,,
1583521500.636100,90.000000,0.000000,4335.897461,4293.333496,4111.794922,4060.512939,4253.333496,450.000000,4.000000,,,,0.000000,4.000000,4.000000,4.000000,4.000000,4.000000,45.000000,0.000000,0.654574,0.140625,0.687500,0.281250,0.843763,-0.531258,0.000000,-76.563667,-76.563667,38.281834
1583521500.643795,91.000000,0.000000,4330.769043,4295.384766,4121.025879,4063.589844,4253.333496,1023.000000,4.000000,,,,0.000000,4.000000,4.000000,4.000000,4.000000,4.000000,,,,,,,,,,,,
1583521500.651493,92.000000,0.000000,4337.436035,4297.436035,4127.179688,4052.307617,4261.538574,450.000000,4.000000,,,,0.000000,4.000000,4.000000,4.000000,4.000000,4.000000,46.000000,0.000000,0.654574,0.140625,0.687500,0.281250,0.843763,-0.531258,-0.031250,-76.563667,-76.563667,38.281834
1583521500.659390,93.000000,0.000000,4328.717773,4289.230957,4121.538574,4047.179443,4262.563965,450.000000,4.000000,,,,0.000000,4.000000,4.000000,4.000000,4.000000,4.000000,,,,,,,,,,,,
1583521500.667289,94.000000,0.000000,4323.077148,4293.333496,4122.563965,4056.923096,4273.333496,450.000000,4.000000,,,,0.000000,4.000000,4.000000,4.000000,4.000000,4.000000,47.000000,0.000000,0.654574,0.140625,0.687500,0.281250,0.843763,-0.531258,0.000000,-76.563667,-76.563667,38.281834
1583521500.675186,95.000000,0.000000,4305.641113,4293.333496,4118.461426,4051.794922,4268.205078,1023.000000,4.000000,,,,0.000000,4.000000,4.000000,4.000000,4.000000,4.000000,,,,,,,,,,,,
1583521500.683084,96.000000,0.000000,4291.282227,4293.333496,4122.051270,4046.153809,4249.230957,450.000000,4.000000,,,,0.000000,4.000000,4.000000,4.000000,4.000000,4.000000,48.000000,0.000000,0.654574,0.140625,0.687500,0.281250,0.843763,-0.531258,-0.031250,-76.563667,-76.563667,38.281834
1583521500.690981,97.000000,0.000000,4290.256348,4285.128418,4130.769043,4049.230713,4236.922852,450.000000,4.000000,,,,0.000000,4.000000,4.000000,4.000000,4.000000,4.000000,,,,,,,,,,,,
1583521500.698878,98.000000,0.000000,4286.666504,4276.922852,4130.256348,4054.871826,4233.333496,450.000000,4.000000,,,,0.000000,4.000000,4.000000,4.000000,4.000000,4.000000,49.000000,0.000000,0.654574,0.140625,0.687500,0.281250,0.843763,-0.562509,-0.031250,-76.563667,-76.563667,38.281834
1583521500.706773,99.000000,0.000000,4258.974121,4272.820313,4118.461426,4043.589844,4207.692383,1023.000000,4.000000,,,,0.000000,4.000000,4.000000,4.000000,4.000000,4.000000,,,,,,,,,,,,
1583521500.714470,100.000000,0.000000,4247.692383,4278.974121,4116.922852,4041.538574,4193.846191,450.000000,4.000000,,,,0.000000,4.000000,4.000000,4.000000,4.000000,4.000000,50.000000,0.000000,0.654574,0.140625,0.687500,0.281250,0.843763,-0.531258,-0.031250,-76.563667,-76.563667,38.281834
1583521500.722366,101.000000,0.000000,4265.641113,4283.077148,4116.922852,4043.076904,4212.820313,450.000000,4.000000,,,,0.000000,4.000000,4.000000,4.000000,4.000000,4.000000,,,,,,,,,,,,
1583521500.730064,102.000000,0.000000,4283.589844,4283.077148,4120.000000,4047.179443,4228.717773,450.000000,4.000000,,,,0.000000,4.000000,4.000000,4.000000,4.000000,4.000000,51.000000,0.000000,0.654574,0.140625,0.687500,0.281250,0.843763,-0.562509,-0.031250,-76.563667,-76.563667,38.281834
1583521500.737961,103.000000,0.000000,4297.948730,4293.333496,4122.051270,4042.051270,4242.051270,1023.000000,4.000000,,,,0.000000,4.000000,4.000000,4.000000,4.000000,4.000000,,,,,,,,,,,,
1583521500.745857,104.000000,0.000000,4302.051270,4293.333496,4116.922852,4053.846191,4248.717773,450.000000,4.000000,,,,0.000000,4.000000,4.000000,4.000000,4.000000,4.000000,52.000000,0.000000,0.654574,0.140625,0.687500,0.281250,0.843763,-0.562509,-0.031250,-76.563667,-76.563667,38.281834
1583521500.753754,105.000000,0.000000,4290.769043,4299.487305,4113.846191,4050.769287,4227.692383,450.000000,4.000000,,,,0.000000,4.000000,4.000000,4.000000,4.000000,4.000000,,,,,,,,,,,,
1583521500.761650,106.000000,0.000000,4273.846191,4305.641113,4124.615234,4042.051270,4209.230957,450.000000,4.000000,,,,0.000000,4.000000,4.000000,4.000000,4.000000,4.000000,53.000000,0.000000,0.654574,0.140625,0.687500,0.281250,0.843763,-0.531258,-0.031250,-76.563667,-76.563667,38.281834
1583521500.769346,107.000000,0.000000,4298.461426,4305.641113,4132.820313,4047.692383,4251.282227,1023.000000,4.000000,,,,0.000000,4.000000,4.000000,4.000000,4.000000,4.000000,,,,,,,,,,,,
1583521500.777043,108.000000,0.000000,4328.717773,4295.384766,4133.333496,4062.051270,4286.666504,450.000000,4.000000,,,,0.000000,4.000000,4.000000,4.000000,4.000000,4.000000,54.000000,0.000000,0.654574,0.140625,0.687500,0.281250,0.843763,-0.531258,-0.031250,-76.563667,-76.563667,38.281834
1583521500.784738,109.000000,0.000000,4334.871582,4297.436035,4137.436035,4060.000000,4291.282227,450.000000,4.000000,,,,0.000000,4.000000,4.000000,4.000000,4.000000,4.000000,,,,,,,,,,,,
1583521500.792436,110.000000,0.000000,4328.717773,4301.538574,4131.794922,4054.871826,4297.436035,450.000000,4.000000,,,,0.000000,4.000000,4.000000,4.000000,4.000000,4.000000,55.000000,0.000000,0.654574,0.140625,0.687500,0.281250,0.843763,-0.531258,-0.031250,-76.563667,-76.563667,38.281834
1583521500.800332,111.000000,0.000000,4335.384766,4301.538574,4121.538574,4055.897461,4314.358887,1023.000000,4.000000,,,,0.000000,4.000000,4.000000,4.000000,4.000000,4.000000,,,,,,,,,,,,
1583521500.808029,112.000000,0.000000,4321.025879,4287.179688,4115.384766,4049.230713,4305.128418,450.000000,4.000000,,,,0.000000,4.000000,4.000000,4.000000,4.000000,4.000000,56.000000,0.000000,0.654574,0.140625,0.687500,0.281250,0.843763,-0.531258,-0.031250,-76.563667,-76.563667,38.281834
1583521500.815724,113.000000,0.000000,4313.333496,4285.128418,4122.563965,4061.538574,4302.563965,450.000000,4.000000,,,,0.000000,4.000000,4.000000,4.000000,4.000000,4.000000,,,,,,,,,,,,
1583521500.823422,114.000000,0.000000,4311.282227,4289.230957,4125.641113,4063.589844,4296.410156,450.000000,4.000000,,,,0.000000,4.000000,4.000000,4.000000,4.000000,4.000000,57.000000,0.000000,0.654574,0.140625,0.687500,0.281250,0.843763,-0.531258,-0.031250,-76.563667,-76.563667,38.281834
1583521500.831318,115.000000,0.000000,4301.025879,4293.333496,4123.589844,4054.871826,4270.256348,1023.000000,4.000000,,,,0.000000,4.000000,4.000000,4.000000,4.000000,4.000000,,,,,,,,,,,,
1583521500.839014,116.000000,0.000000,4294.358887,4293.333496,4114.871582,4043.076904,4260.512695,450.000000,4.000000,,,,0.000000,4.000000,4.000000,4.000000,4.000000,4.000000,58.000000,0.000000,0.654574,0.140625,0.687500,0.281250,0.843763,-0.531258,-0.031250,-76.563667,-76.563667,38.281834
1583521500.846710,117.000000,0.000000,4296.922852,4289.230957,4110.769043,4047.179443,4266.153809,450.000000,4.000000,,,,0.000000,4.000000,4.000000,4.000000,4.000000,4.000000,,,,,,,,,,,,
1583521500.854407,118.000000,0.000000,4302.563965,4283.077148,4115.384766,4044.615479,4261.538574,450.000000,4.000000,,,,0.000000,4.000000,4.000000,4.000000,4.000000,4.000000,59.000000,0.000000,0.654574,0.140625,0.687500,0.281250,0.843763,-0.562509,-0.031250,-76.563667,-76.563667,38.281834
1583521500.862303,119.000000,0.000000,4305.128418,4285.128418,4129.230957,4052.307617,4253.846191,1023.000000,4.000000,,,,0.000000,4.000000,4.000000,4.000000,4.000000,4.000000,,,,,,,,,,,,
1583521500.870000,120.000000,0.000000,4301.538574,4287.179688,4128.717773,4049.743652,4252.307617,450.000000,4.000000,,,,0.000000,4.000000,4.000000,4.000000,4.000000,4.000000,60.000000,0.000000,0.654574,0.140625,0.687500,0.281250,0.843763,-0.562509,-0.031250,-76.563667,-76.563667,38.281834
1583521500.877896,121.000000,0.000000,4289.230957,4270.769043,4101.025879,4042.051270,4242.563965,450.000000,4.000000,,,,0.000000,4.000000,4.000000,4.000000,4.000000,4.000000,,,,,,,,,,,,
1583521500.885593,122.000000,0.000000,4290.256348,4264.615234,4074.358887,4037.948730,4247.692383,450.000000,4.000000,,,,0.000000,4.000000,4.000000,4.000000,4.000000,4.000000,61.000000,0.000000,0.654574,0.140625,0.687500,0.281250,0.843763,-0.531258,-0.031250,-76.563667,-76.563667,38.281834
1583521500.893489,123.000000,0.000000,4279.487305,4268.717773,4076.923096,4047.179443,4234.358887,1023.000000,4.000000,,,,0.000000,4.000000,4.000000,4.000000,4.000000,4.000000,,,,,,,,,,,,
1583521500.901187,124.000000,0.000000,4293.846191,4276.922852,4086.153809,4046.153809,4226.666504,450.000000,4.000000,,,,0.000000,4.000000,4.000000,4.000000,4.000000,4.000000,62.000000,0.000000,0.654574,0.140625,0.687500,0.281250,0.843763,-0.531258,-0.031250,-76.563667,-76.563667,38.281834
1583521500.909084,125.000000,0.000000,4337.436035,4281.025879,4084.102539,4038.974365,4255.384766,450.000000,4.000000,,,,0.000000,4.000000,4.000000,4.000000,4.000000,4.000000,,,,,,,,,,,,
1583521500.916982,126.000000,0.000000,4373.846191,4297.436035,4095.384521,4041.025635,4297.436035,450.000000,4.000000,,,,0.000000,4.000000,4.000000,4.000000,4.000000,4.000000,63.000000,0.000000,0.654574,0.140625,0.687500,0.281250,0.843763,-0.562509,-0.031250,-76.563667,-76.563667,38.281834
1583521500.924879,127.000000,0.000000,4381.538574,4299.487305,4102.051270,4040.512939,4295.384766,243.000000,4.000000,,,,0.000000,4.000000,4.000000,4.000000,4.000000,4.000000,,,,,,,,,,,,
1583521500.932776,0.000000,0.000000,4409.230957,4295.384766,4095.384521,4042.564209,4304.615234,450.000000,4.000000,,,,0.000000,4.000000,4.000000,4.000000,4.000000,4.000000,0.000000,0.000000,0.654574,0.140625,0.687500,0.281250,0.843763,-0.562509,-0.031250,-76.563667,-76.563667,38.281834
1583521500.940673,1.000000,0.000000,4462.051270,4301.538574,4092.307617,4040.512939,4345.641113,450.000000,4.000000,,,,0.000000,4.000000,4.000000,4.000000,4.000000,4.000000,,,,,,,,,,,,
1583521500.948570,2.000000,0.000000,4526.666504,4315.897461,4103.589844,4042.564209,4392.820313,1023.000000,4.000000,,,,0.000000,4.000000,4.000000,4.000000,4.000000,4.000000,1.000000,0.000000,0.654574,0.140625,0.687500,0.281250,0.843763,-0.531258,-0.031250,-76.563667,-76.563667,38.281834
1583521500.956465,3.000000,0.000000,4577.948730,4313.846191,4100.000000,4031.281982,4427.179688,450.000000,4.000000,,,,0.000000,4.000000,4.000000,4.000000,4.000000,4.000000,,,,,,,,,,,,
1583521500.964162,4.000000,0.000000,4608.205078,4299.487305,4090.769287,4028.718018,4443.589844,1023.000000,4.000000,,,,0.000000,4.000000,4.000000,4.000000,4.000000,4.000000,2.000000,0.000000,0.654574,0.140625,0.687500,0.281250,0.843763,-0.562509,-0.031250,-76.563667,-76.563667,38.281834
1583521500.971858,5.000000,0.000000,4649.743652,4315.897461,4091.281982,4029.743652,4459.487305,450.000000,4.000000,,,,0.000000,4.000000,4.000000,4.000000,4.000000,4.000000,,,,,,,,,,,,
1583521500.979554,6.000000,0.000000,4690.256348,4332.307617,4102.051270,4034.358887,4477.948730,1023.000000,4.000000,,,,0.000000,4.000000,4.000000,4.000000,4.000000,4.000000,3.000000,0.000000,0.654574,0.140625,0.687500,0.281250,0.843763,-0.562509,-0.031250,-76.563667,-76.563667,38.281834
1583521500.987250,7.000000,0.000000,4715.897461,4328.205078,4106.666504,4026.153809,4507.692383,450.000000,4.000000,,,,0.000000,4.000000,4.000000,4.000000,4.000000,4.000000,,,,,,,,,,,,
1583521500.994947,8.000000,0.000000,4727.179688,4315.897461,4107.692383,4032.307617,4529.743652,450.000000,4.000000,,,,0.000000,4.000000,4.000000,4.000000,4.000000,4.000000,4.000000,0.000000,0.654574,0.140625,0.687500,0.281250,0.843763,-0.531258,-0.031250,-76.563667,-76.563667,38.281834
1583521501.002844,9.000000,0.000000,4736.410156,4324.102539,4116.922852,4039.487061,4533.846191,289.000000,4.000000,,,,0.000000,4.000000,4.000000,4.000000,4.000000,4.000000,,,,,,,,,,,,
1583521501.010541,10.000000,0.000000,4741.538574,4324.102539,4118.974121,4042.564209,4532.307617,450.000000,4.000000,,,,0.000000,4.000000,4.000000,4.000000,4.000000,4.000000,5.000000,0.000000,0.654574,0.140625,0.687500,0.281250,0.843763,-0.531258,-0.031250,-76.563667,-76.563667,38.281834
1583521501.018437,11.000000,0.000000,4755.897461,4326.153809,4112.307617,4040.000000,4543.589844,1023.000000,4.000000,,,,0.000000,4.000000,4.000000,4.000000,4.000000,4.000000,,,,,,,,,,,,
1583521501.026135,12.000000,0.000000,4746.153809,4324.102539,4110.256348,4041.538574,4533.846191,450.000000,4.000000,,,,0.000000,4.000000,4.000000,4.000000,4.000000,4.000000,6.000000,0.000000,0.654574,0.140625,0.687500,0.281250,0.843763,-0.562509,-0.031250,-76.563667,-76.563667,38.281834
1583521501.034031,13.000000,0.000000,4722.051270,4324.102539,4111.794922,4046.153809,4526.153809,450.000000,4.000000,,,,0.000000,4.000000,4.000000,4.000000,4.000000,4.000000,,,,,,,,,,,,
1583521501.041728,14.000000,0.000000,4709.743652,4322.051270,4111.282227,4046.153809,4528.205078,450.000000,4.000000,,,,0.000000,4.000000,4.000000,4.000000,4.000000,4.000000,7.000000,0.000000,0.654574,0.140625,0.687500,0.281250,0.843763,-0.531258,-0.031250,-76.563667,-76.563667,38.281834
1583521501.049624,15.000000,0.000000,4715.897461,4334.358887,4116.410156,4043.076904,4529.230957,1023.000000,4.000000,,,,0.000000,4.000000,4.000000,4.000000,4.000000,4.000000,,,,,,,,,,,,
1583521501.057322,16.000000,0.000000,4700.000000,4332.307617,4117.436035,4031.281982,4506.666504,0.000000,4.000000,,,,0.000000,4.000000,4.000000,4.000000,4.000000,4.000000,8.000000,0.000000,0.654574,0.140625,0.687500,0.281250,0.843763,-0.562509,-0.031250,-76.563667,-76.563667,38.281834
1583521501.065218,17.000000,0.000000,4673.846191,4324.102539,4121.538574,4036.923096,4484.615234,0.000000,4.000000,,,,0.000000,4.000000,4.000000,4.000000,4.000000,4.000000,,,,,,,,,,,,
1583521501.072915,18.000000,0.000000,4655.897461,4317.948730,4117.948730,4041.025635,4471.794922,0.000000,4.000000,,,,0.000000,4.000000,4.000000,4.000000,4.000000,4.000000,9.000000,0.000000,0.654574,0.140625,0.687500,0.281250,0.843763,-0.562509,-0.031250,-76.563667,-76.563667,38.281834
1583521501.080811,19.000000,0.000000,4646.153809,4324.102539,4112.307617,4045.641113,4466.153809,0.000000,4.000000,,,,0.000000,4.000000,4.000000,4.000000,4.000000,4.000000,,,,,,,,,,,,
1583521501.088508,20.000000,0.000000,4612.820313,4328.205078,4103.077148,4038.461426,4444.102539,0.000000,4.000000,,,,0.000000,4.000000,4.000000,4.000000,4.000000,4.000000,10.000000,0.000000,0.654574,0.140625,0.687500,0.281250,0.843763,-0.562509,-0.031250,-76.563667,-76.563667,38.281834
1583521501.096403,21.000000,0.000000,4550.256348,4315.897461,4098.974121,4045.128174,4405.128418,0.000000,4.000000,,,,0.000000,4.000000,4.000000,4.000000,4.000000,4.000000,,,,,,,,,,,,
1583521501.104101,22.000000,0.000000,4501.025879,4307.692383,4101.025879,4046.153809,4380.000000,0.000000,4.000000,,,,0.000000,4.000000,4.000000,4.000000,4.000000,4.000000,11.000000,0.000000,0.654574,0.140625,0.687500,0.281250,0.843763,-0.562509,-0.031250,-76.563667,-76.563667,38.281834
1583521501.111996,23.000000,0.000000,4462.563965,4315.897461,4111.794922,4054.358887,4354.871582,0.000000,4.000000,,,,0.000000,4.000000,4.000000,4.000000,4.000000,4.000000,,,,,,,,,,,,
1583521501.119694,24.000000,0.000000,4416.922852,4328.205078,4116.410156,4055.384521,4329.743652,0.000000,4.000000,,,,0.000000,4.000000,4.000000,4.000000,4.000000,4.000000,12.000000,0.000000,0.654574,0.140625,0.687500,0.281250,0.843763,-0.531258,-0.031250,-76.563667,-76.563667,38.281834
1583521501.127591,25.000000,0.000000,4358.461426,4313.846191,4108.717773,4054.871826,4297.436035,0.000000,4.000000,,,,0.000000,4.000000,4.000000,4.000000,4.000000,4.000000,,,,,,,,,,,,
1583521501.135489,26.000000,0.000000,4319.487305,4307.692383,4108.205078,4054.358887,4268.205078,0.000000,4.000000,,,,0.000000,4.000000,4.000000,4.000000,4.000000,4.000000,13.000000,0.000000,0.654574,0.140625,0.687500,0.281250,0.843763,-0.531258,-0.031250,-76.563667,-76.563667,38.281834
1583521501.143385,27.000000,0.000000,4292.307617,4322.051270,4121.538574,4059.487061,4244.615234,0.000000,4.000000,,,,0.000000,4.000000,4.000000,4.000000,4.000000,4.000000,,,,,,,,,,,,
1583521501.151281,28.000000,0.000000,4284.615234,4344.615234,4135.384766,4056.410156,4236.922852,0.000000,4.000000,,,,0.000000,4.000000,4.000000,4.000000,4.000000,4.000000,14.000000,0.000000,0.654574,0.140625,0.687500,0.281250,0.843763,-0.562509,-0.031250,-76.563667,-76.563667,38.281834
1583521501.158977,29.000000,0.000000,4273.333496,4336.410156,4124.102539,4040.512939,4216.410156,0.000000,4.000000,,,,0.000000,4.000000,4.000000,4.000000,4.000000,4.000000,,,,,,,,,,,,
1583521501.166673,30.000000,0.000000,4261.025879,4324.102539,4107.692383,4046.153809,4202.051270,0.000000,4.000000,,,,0.000000,4.000000,4.000000,4.000000,4.000000,4.000000,15.000000,0.000000,0.654574,0.140625,0.687500,0.281250,0.843763,-0.562509,-0.031250,-76.563667,-76.563667,38.281834
1583521501.174369,31.000000,0.000000,4249.230957,4322.051270,4112.307617,4059.487061,4194.871582,0.000000,4.000000,,,,0.000000,4.000000,4.000000,4.000000,4.000000,4.000000,,,,,,,,,,,,
1583521501.182065,32.000000,0.000000,4242.563965,4324.102539,4130.256348,4063.076904,4194.358887,0.000000,4.000000,,,,0.000000,4.000000,4.000000,4.000000,4.000000,4.000000,16.000000,0.000000,0.654574,0.140625,0.687500,0.281250,0.843763,-0.562509,-0.031250,-76.563667,-76.563667,38.281834
1583521501.189761,33.000000,0.000000,4222.051270,4322.051270,4127.179688,4045.128174,4183.589844,0.000000,4.000000,,,,0.000000,4.000000,4.000000,4.000000,4.000000,4.000000,,,,,,,,,,,,
1583521501.197458,34.000000,0.000000,4201.538574,4322.051270,4116.922852,4045.128174,4165.641113,0.000000,4.000000,,,,0.000000,4.000000,4.000000,4.000000,4.000000,4.000000,17.000000,0.000000,0.654574,0.140625,0.687500,0.281250,0.843763,-0.531258,-0.031250,-76.563667,-76.563667,38.281834
1583521501.205355,35.000000,0.000000,4200.512695,4324.102539,4112.820313,4045.128174,4154.358887,0.000000,4.000000,,,,0.000000,4.000000,4.000000,4.000000,4.000000,4.000000,,,,,,,,,,,,
1583521501.213052,36.000000,0.000000,4202.051270,4326.153809,4113.333496,4049.230713,4149.230957,0.000000,4.000000,,,,0.000000,4.000000,4.000000,4.000000,4.000000,4.000000,18.000000,0.000000,0.654574,0.140625,0.687500,0.281250,0.843763,-0.531258,-0.031250,-76.563667,-76.563667,38.281834
1583521501.220949,37.000000,0.000000,4194.358887,4330.256348,4113.333496,4050.256348,4140.512695,0.000000,4.000000,,,,0.000000,4.000000,4.000000,4.000000,4.000000,4.000000,,,,,,,,,,,,
1583521501.228846,38.000000,0.000000,4179.487305,4328.205078,4126.666504,4059.487061,4128.205078,0.000000,4.000000,,,,0.000000,4.000000,4.000000,4.000000,4.000000,4.000000,19.000000,0.000000,0.654574,0.140625,0.687500,0.281250,0.843763,-0.531258,-0.031250,-76.563667,-76.563667,38.281834
1583521501.236743,39.000000,0.000000,4179.487305,4328.205078,4135.384766,4051.281982,4137.436035,0.000000,4.000000,,,,0.000000,4.000000,4.000000,4.000000,4.000000,4.000000,,,,,,,,,,,,
1583521501.244440,40.000000,0.000000,4177.948730,4322.051270,4123.589844,4045.128174,4132.820313,0.000000,4.000000,,,,0.000000,4.000000,4.000000,4.000000,4.000000,4.000000,20.000000,0.000000,0.654574,0.140625,0.687500,0.281250,0.843763,-0.531258,-0.031250,-76.563667,-76.563667,38.281834
1583521501.252336,41.000000,0.000000,4171.794922,4320.000000,4116.922852,4044.615479,4119.487305,0.000000,4.000000,,,,0.000000,4.000000,4.000000,4.000000,4.000000,4.000000,,,,,,,,,,,,
1583521501.260033,42.000000,0.000000,4162.563965,4315.897461,4124.615234,4047.179443,4114.871582,0.000000,4.000000,,,,0.000000,4.000000,4.000000,4.000000,4.000000,4.000000,21.000000,0.000000,0.654574,0.140625,0.687500,0.281250,0.843763,-0.562509,-0.031250,-76.563667,-76.563667,38.281834
1583521501.267929,43.000000,0.000000,4174.871582,4324.102539,4127.179688,4046.666748,4133.333496,0.000000,4.000000,,,,0.000000,4.000000,4.000000,4.000000,4.000000,4.000000,,,,,,,,,,,,
1583521501.275626,44.000000,0.000000,4178.461426,4326.153809,4114.358887,4047.692383,4132.307617,0.000000,4.000000,,,,0.000000,4.000000,4.000000,4.000000,4.000000,4.000000,22.000000,0.000000,0.654574,0.140625,0.687500,0.281250,0.843763,-0.531258,-0.031250,-76.563667,-76.563667,38.281834
1583521501.283522,45.000000,0.000000,4165.641113,4324.102539,4106.666504,4056.410156,4114.871582,0.000000,4.000000,,,,0.000000,4.000000,4.000000,4.000000,4.000000,4.000000,,,,,,,,,,,,
1583521501.291220,46.000000,0.000000,4143.077148,4322.051270,4104.615234,4052.820557,4098.461426,0.000000,4.000000,,,,0.000000,4.000000,4.000000,4.000000,4.000000,4.000000,23.000000,0.000000,0.654574,0.140625,0.687500,0.281250,0.843763,-0.562509,-0.031250,-76.563667,-76.563667,38.281834
1583521501.299115,47.000000,0.000000,4153.846191,4326.153809,4106.153809,4045.128174,4108.205078,0.000000,4.000000,,,,0.000000,4.000000,4.000000,4.000000,4.000000,4.000000,,,,,,,,,,,,
1583521501.306812,48.000000,0.000000,4185.641113,4315.897461,4100.000000,4043.589844,4131.282227,0.000000,4.000000,,,,0.000000,4.000000,4.000000,4.000000,4.000000,4.000000,24.000000,0.000000,0.654574,0.140625,0.687500,0.281250,0.843763,-0.531258,-0.031250,-76.563667,-76.563667,38.281834
1583521501.314708,49.000000,0.000000,4201.025879,4307.692383,4100.512695,4057.948730,4147.179688,0.000000,4.000000,,,,0.000000,4.000000,4.000000,4.000000,4.000000,4.000000,,,,,,,,,,,,
1583521501.322406,50.000000,0.000000,4198.461426,4309.743652,4093.846191,4044.615479,4146.666504,0.000000,4.000000,,,,0.000000,4.000000,4.000000,4.000000,4.000000,4.000000,25.000000,0.000000,0.654574,0.140625,0.687500,0.281250,0.843763,-0.531258,-0.031250,-76.563667,-76.563667,38.281834
1583521501.330303,51.000000,0.000000,4227.692383,4305.641113,4080.512939,4028.718018,4160.000000,0.000000,4.000000,,,,0.000000,4.000000,4.000000,4.000000,4.000000,4.000000,,,,,,,,,,,,
1583521501.338200,52.000000,0.000000,4297.948730,4309.743652,4087.179443,4035.897461,4207.692383,0.000000,4.000000,,,,0.000000,4.000000,4.000000,4.000000,4.000000,4.000000,26.000000,0.000000,0.654574,0.140625,0.687500,0.281250,0.843763,-0.562509,-0.031250,-76.563667,-76.563667,38.281834
1583521501.346097,53.000000,0.000000,4356.922852,4322.051270,4113.846191,4059.487061,4255.384766,0.000000,4.000000,,,,0.000000,4.000000,4.000000,4.000000,4.000000,4.000000,,,,,,,,,,,,
1583521501.353993,54.000000,0.000000,4406.153809,4324.102539,4114.871582,4045.641113,4290.256348,0.000000,4.000000,,,,0.000000,4.000000,4.000000,4.000000,4.000000,4.000000,27.000000,0.000000,0.654574,0.140625,0.687500,0.281250,0.843763,-0.562509,-0.031250,-76.563667,-76.563667,38.281834
1583521501.361789,55.000000,0.000000,4460.512695,4320.000000,4102.563965,4027.692383,4321.025879,0.000000,4.000000,,,,0.000000,4.000000,4.000000,4.000000,4.000000,4.000000,,,,,,,,,,,,
1583521501.369487,56.000000,0.000000,4525.641113,4332.307617,4112.307617,4034.871826,4375.384766,0.000000,4.000000,,,,0.000000,4.000000,4.000000,4.000000,4.000000,4.000000,28.000000,0.000000,0.654574,0.140625,0.687500,0.281250,0.843763,-0.562509,-0.031250,-76.563667,-76.563667,38.281834
1583521501.377383,57.000000,0.000000,4576.410156,4330.256348,4122.563965,4050.256348,4421.538574,0.000000,4.000000,,,,0.000000,4.000000,4.000000,4.000000,4.000000,4.000000,,,,,,,,,,,,
1583521501.385080,58.000000,0.000000,4621.538574,4324.102539,4119.487305,4038.461426,4443.077148,0.000000,4.000000,,,,0.000000,4.000000,4.000000,4.000000,4.000000,4.000000,29.000000,0.000000,0.654574,0.140625,0.687500,0.281250,0.843763,-0.531258,-0.031250,-76.563667,-76.563667,38.281834
1583521501.392775,59.000000,0.000000,4645.641113,4320.000000,4121.538574,4027.179443,4448.717773,0.000000,4.000000,,,,0.000000,4.000000,4.000000,4.000000,4.000000,4.000000,,,,,,,,,,,,
1583521501.400471,60.000000,0.000000,4663.589844,4328.205078,4128.205078,4034.871826,4470.769043,0.000000,4.000000,,,,0.000000,4.000000,4.000000,4.000000,4.000000,4.000000,30.000000,0.000000,0.654574,0.140625,0.687500,0.281250,0.843763,-0.562509,-0.031250,-76.563667,-76.563667,38.281834
1583521501.408167,61.000000,0.000000,4675.384766,4328.205078,4121.538574,4032.307617,4477.436035,0.000000,4.000000,,,,0.000000,4.000000,4.000000,4.000000,4.000000,4.000000,,,,,,,,,,,,
1583521501.415865,62.000000,0.000000,4682.563965,4326.153809,4117.436035,4032.820557,4471.282227,0.000000,4.000000,,,,0.000000,4.000000,4.000000,4.000000,4.000000,4.000000,31.000000,0.000000,0.654574,0.140625,0.687500,0.281250,0.843763,-0.562509,-0.031250,-76.563667,-76.563667,38.281834
1583521501.423761,63.000000,0.000000,4670.256348,4326.153809,4114.871582,4033.333252,4468.717773,0.000000,4.000000,,,,0.000000,4.000000,4.000000,4.000000,4.000000,4.000000,,,,,,,,,,,,
1583521501.431458,64.000000,0.000000,4661.025879,4336.410156,4111.794922,4036.410156,4467.692383,450.000000,4.000000,,,,0.000000,4.000000,4.000000,4.000000,4.000000,4.000000,32.000000,0.000000,0.654574,0.140625,0.687500,0.281250,0.843763,-0.531258,-0.031250,-76.563667,-76.563667,38.281834
1583521501.439354,65.000000,0.000000,4667.179688,4336.410156,4109.230957,4034.358887,4459.487305,450.000000,4.000000,,,,0.000000,4.000000,4.000000,4.000000,4.000000,4.000000,,,,,,,,,,,,
1583521501.447052,66.000000,0.000000,4681.538574,4332.307617,4115.897461,4045.641113,4465.128418,1023.000000,4.000000,,,,0.000000,4.000000,4.000000,4.000000,4.000000,4.000000,33.000000,0.000000,0.654574,0.140625,0.687500,0.281250,0.843763,-0.531258,-0.031250,-76.563667,-76.563667,38.281834
1583521501.454948,67.000000,0.000000,4678.974121,4332.307617,4115.384766,4043.076904,4470.769043,450.000000,4.000000,,,,0.000000,4.000000,4.000000,4.000000,4.000000,4.000000,,,,,,,,,,,,
1583521501.462645,68.000000,0.000000,4663.077148,4326.153809,4114.358887,4048.718018,4456.410156,1023.000000,4.000000,,,,0.000000,4.000000,4.000000,4.000000,4.000000,4.000000,34.000000,0.000000,0.654574,0.140625,0.687500,0.281250,0.843763,-0.562509,-0.031250,-76.563667,-76.563667,38.281834
1583521501.470541,69.000000,0.000000,4667.692383,4328.205078,4114.358887,4046.153809,4453.846191,450.000000,4.000000,,,,0.000000,4.000000,4.000000,4.000000,4.000000,4.000000,,,,,,,,,,,,
1583521501.478236,70.000000,0.000000,4666.153809,4332.307617,4110.256348,4035.897461,4453.846191,1023.000000,4.000000,,,,0.000000,4.000000,4.000000,4.000000,4.000000,4.000000,35.000000,0.000000,0.654574,0.140625,0.687500,0.281250,0.843763,-0.562509,-0.031250,-76.563667,-76.563667,38.281834
1583521501.485931,71.000000,0.000000,4662.563965,4334.358887,4101.538574,4025.128174,4446.666504,450.000000,4.000000,,,,0.000000,4.000000,4.000000,4.000000,4.000000,4.000000,,,,,,,,,,,,
1583521501.493629,72.000000,0.000000,4657.948730,4326.153809,4099.487305,4029.230713,4432.307617,450.000000,4.000000,,,,0.000000,4.000000,4.000000,4.000000,4.000000,4.000000,36.000000,0.000000,0.654574,0.140625,0.687500,0.281250,0.843763,-0.531258,-0.031250,-76.563667,-76.563667,38.281834
1583521501.501524,73.000000,0.000000,4657.436035,4328.205078,4107.692383,4032.307617,4433.333496,282.000000,4.000000,,,,0.000000,4.000000,4.000000,4.000000,4.000000,4.000000,,,,,,,,,,,,
1583521501.509221,74.000000,0.000000,4647.692383,4326.153809,4105.128418,4026.153809,4429.230957,450.000000,4.000000,,,,0.000000,4.000000,4.000000,4.000000,4.000000,4.000000,37.000000,0.000000,0.654574,0.140625,0.687500,0.281250,0.843763,-0.531258,-0.031250,-76.563667,-76.563667,38.281834
1583521501.517117,75.000000,0.000000,4652.307617,4328.205078,4098.974121,4025.128174,4434.871582,1023.000000,4.000000,,,,0.000000,4.000000,4.000000,4.000000,4.000000,4.000000,,,,,,,,,,,,
1583521501.524814,76.000000,0.000000,4657.948730,4330.256348,4098.461426,4039.487061,4439.487305,450.000000,4.000000,,,,0.000000,4.000000,4.000000,4.000000,4.000000,4.000000,38.000000,0.000000,0.654574,0.140625,0.687500,0.281250,0.843763,-0.531258,-0.031250,-76.563667,-76.563667,38.281834
1583521501.532709,77.000000,0.000000,4664.102539,4336.410156,4106.666504,4051.794922,4443.077148,450.000000,4.000000,,,,0.000000,4.000000,4.000000,4.000000,4.000000,4.000000,,,,,,,,,,,,
1583521501.540407,78.000000,0.000000,4660.000000,4336.410156,4111.282227,4041.538574,4436.410156,450.000000,4.000000,,,,0.000000,4.000000,4.000000,4.000000,4.000000,4.000000,39.000000,0.000000,0.654574,0.140625,0.687500,0.281250,0.843763,-0.531258,-0.031250,-76.563667,-76.563667,38.281834
1583521501.548304,79.000000,0.000000,4640.000000,4336.410156,4125.128418,4043.589844,4423.077148,1023.000000,4.000000,,,,0.000000,4.000000,4.000000,4.000000,4.000000,4.000000,,,,,,,,,,,,
1583521501.556200,80.000000,0.000000,4617.948730,4340.512695,4131.794922,4040.000000,4411.282227,450.000000,4.000000,,,,0.000000,4.000000,4.000000,4.000000,4.000000,4.000000,40.000000,0.000000,0.654574,0.140625,0.687500,0.281250,0.843763,-0.531258,-0.031250,-76.563667,-76.563667,38.281834
1583521501.564096,81.000000,0.000000,4612.307617,4338.461426,4124.615234,4040.000000,4410.769043,450.000000,4.000000,,,,0.000000,4.000000,4.000000,4.000000,4.000000,4.000000,,,,,,,,,,,,
1583521501.571792,82.000000,0.000000,4602.563965,4332.307617,4116.922852,4040.000000,4415.897461,450.000000,4.000000,,,,0.000000,4.000000,4.000000,4.000000,4.000000,4.000000,41.000000,0.000000,0.654574,0.140625,0.687500,0.281250,0.843763,-0.531258,-0.031250,-76.563667,-76.563667,38.281834
1583521501.579488,83.000000,0.000000,4589.743652,4324.102539,4109.230957,4040.000000,4411.282227,1023.000000,4.000000,,,,0.000000,4.000000,4.000000,4.000000,4.000000,4.000000,,,,,,,,,,,,
1583521501.587185,84.000000,0.000000,4593.333496,4330.256348,4099.487305,4033.333252,4404.102539,450.000000,4.000000,,,,0.000000,4.000000,4.000000,4.000000,4.000000,4.000000,42.000000,0.000000,0.654574,0.140625,0.687500,0.281250,0.843763,-0.562509,-0.031250,-76.563667,-76.563667,38.281834
1583521501.595082,85.000000,0.000000,4589.743652,4336.410156,4109.743652,4045.641113,4398.461426,450.000000,4.000000,,,,0.000000,4.000000,4.000000,4.000000,4.000000,4.000000,,,,,,,,,,,,
1583521501.602779,86.000000,0.000000,4581.538574,4340.512695,4115.384766,4044.615479,4410.769043,450.000000,4.000000,,,,0.000000,4.000000,4.000000,4.000000,4.000000,4.000000,43.000000,0.000000,0.654574,0.140625,0.687500,0.281250,0.843763,-0.562509,-0.031250,-76.563667,-76.563667,38.281834
1583521501.610675,87.000000,0.000000,4580.000000,4340.512695,4099.487305,4035.384521,4416.410156,1023.000000,4.000000,,,,0.000000,4.000000,4.000000,4.000000,4.000000,4.000000,,,,,,,,,,,,
1583521501.618373,88.000000,0.000000,4585.128418,4348.717773,4101.538574,4034.871826,4410.256348,450.000000,4.000000,,,,0.000000,4.000000,4.000000,4.000000,4.000000,4.000000,44.000000,0.000000,0.654574,0.140625,0.687500,0.281250,0.843763,-0.562509,-0.031250,-76.563667,-76.563667,38.281834
1583521501.626269,89.000000,0.000000,4557.948730,4340.512695,4119.487305,4037.948730,4395.897461,450.000000,4.000000,,,,0.000000,4.000000,4.000000,4.000000,4.000000,4.000000,,,,,,,,,,,,
1583521501.633966,90.000000,0.000000,4536.922852,4334.358887,4114.358887,4035.897461,4394.871582,450.000000,4.000000,,,,0.000000,4.000000,4.000000,4.000000,4.000000,4.000000,45.000000,0.000000,0.654574,0.140625,0.687500,0.281250,0.843763,-0.531258,-0.031250,-76.563667,-76.563667,38.281834
1583521501.641862,91.000000,0.000000,4536.410156,4328.205078,4099.487305,4036.923096,4395.384766,1023.000000,4.000000,,,,0.000000,4.000000,4.000000,4.000000,4.000000,4.000000,,,,,,,,,,,,
1583521501.649560,92.000000,0.000000,4542.563965,4326.153809,4107.692383,4044.102539,4401.538574,450.000000,4.000000,,,,0.000000,4.000000,4.000000,4.000000,4.000000,4.000000,46.000000,0.000000,0.654574,0.140625,0.687500,0.281250,0.843763,-0.562509,-0.031250,-76.563667,-76.563667,38.281834
1583521501.657455,93.000000,0.000000,4538.974121,4328.205078,4113.846191,4043.076904,4406.153809,450.000000,4.000000,,,,0.000000,4.000000,4.000000,4.000000,4.000000,4.000000,,,,,,,,,,,,
1583521501.665151,94.000000,0.000000,4543.077148,4336.410156,4116.922852,4048.718018,4407.692383,450.000000,4.000000,,,,0.000000,4.000000,4.000000,4.000000,4.000000,4.000000,47.000000,0.000000,0.654574,0.140625,0.687500,0.281250,0.843763,-0.531258,-0.031250,-76.563667,-76.563667,38.281834
1583521501.672846,95.000000,0.000000,4549.743652,4344.615234,4126.666504,4050.769287,4400.000000,1023.000000,4.000000,,,,0.000000,4.000000,4.000000,4.000000,4.000000,4.000000,,,,,,,,,,,,
1583521501.680543,96.000000,0.000000,4546.666504,4348.717773,4128.205078,4051.794922,4399.487305,450.000000,4.000000,,,,0.000000,4.000000,4.000000,4.000000,4.000000,4.000000,48.000000,0.000000,0.654574,0.140625,0.687500,0.281250,0.843763,-0.531258,-0.031250,-76.563667,-76.563667,38.281834
1583521501.688439,97.000000,0.000000,4532.820313,4332.307617,4106.666504,4036.410156,4402.563965,450.000000,4.000000,,,,0.000000,4.000000,4.000000,4.000000,4.000000,4.000000,,,,,,,,,,,,
1583521501.696136,98.000000,0.000000,4518.461426,4320.000000,4097.948730,4037.435791,4389.743652,450.000000,4.000000,,,,0.000000,4.000000,4.000000,4.000000,4.000000,4.000000,49.000000,0.000000,0.654574,0.140625,0.687500,0.281250,0.843763,-0.531258,-0.031250,-76.563667,-76.563667,38.281834
1583521501.704032,99.000000,0.000000,4516.922852,4330.256348,4111.794922,4037.435791,4378.461426,1023.000000,4.000000,,,,0.000000,4.000000,4.000000,4.000000,4.000000,4.000000,,,,,,,,,,,,
1583521501.711729,100.000000,0.000000,4518.461426,4332.307617,4125.128418,4049.743652,4379.487305,450.000000,4.000000,,,,0.000000,4.000000,4.000000,4.000000,4.000000,4.000000,50.000000,0.000000,0.654574,0.140625,0.687500,0.281250,0.875013,-0.531258,-0.031250,-76.563667,-76.563667,38.281834
1583521501.719625,101.000000,0.000000,4530.769043,4328.205078,4129.230957,4058.461426,4392.307617,450.000000,4.000000,,,,0.000000,4.000000,4.000000,4.000000,4.000000,4.000000,,,,,,,,,,,,
1583521501.727322,102.000000,0.000000,4538.461426,4322.051270,4133.333496,4060.512939,4396.410156,450.000000,4.000000,,,,0.000000,4.000000,4.000000,4.000000,4.000000,4.000000,51.000000,0.000000,0.654574,0.140625,0.687500,0.281250,0.843763,-0.531258,-0.031250,-76.563667,-76.563667,38.281834
1583521501.735219,103.000000,0.000000,4536.410156,4324.102539,4140.000000,4058.461426,4396.410156,1023.000000,4.000000,,,,0.000000,4.000000,4.000000,4.000000,4.000000,4.000000,,,,,,,,,,,,
1583521501.743117,104.000000,0.000000,4524.102539,4320.000000,4143.077148,4058.461426,4390.769043,450.000000,4.000000,,,,0.000000,4.000000,4.000000,4.000000,4.000000,4.000000,52.000000,0.000000,0.654574,0.140625,0.687500,0.281250,0.843763,-0.531258,-0.031250,-76.563667,-76.563667,38.281834
1583521501.751013,105.000000,0.000000,4531.282227,4324.102539,4143.077148,4054.871826,4403.077148,450.000000,4.000000,,,,0.000000,4.000000,4.000000,4.000000,4.000000,4.000000,,,,,,,,,,,,
1583521501.758910,106.000000,0.000000,4532.820313,4317.948730,4137.948730,4048.718018,4407.692383,450.000000,4.000000,,,,0.000000,4.000000,4.000000,4.000000,4.000000,4.000000,53.000000,0.000000,0.654574,0.140625,0.687500,0.281250,0.843763,-0.531258,-0.031250,-76.563667,-76.563667,38.281834
1583521501.766706,107.000000,0.000000,4526.666504,4315.897461,4128.205078,4047.692383,4400.000000,1023.000000,4.000000,,,,0.000000,4.000000,4.000000,4.000000,4.000000,4.000000,,,,,,,,,,,,
1583521501.774403,108.000000,0.000000,4509.230957,4317.948730,4118.461426,4042.564209,4371.794922,450.000000,4.000000,,,,0.000000,4.000000,4.000000,4.000000,4.000000,4.000000,54.000000,0.000000,0.654574,0.140625,0.687500,0.281250,0.843763,-0.531258,-0.031250,-76.563667,-76.563667,38.281834
1583521501.782098,109.000000,0.000000,4497.948730,4324.102539,4128.717773,4043.076904,4349.230957,450.000000,4.000000,,,,0.000000,4.000000,4.000000,4.000000,4.000000,4.000000,,,,,,,,,,,,
1583521501.789796,110.000000,0.000000,4495.384766,4322.051270,4133.333496,4032.307617,4353.846191,450.000000,4.000000,,,,0.000000,4.000000,4.000000,4.000000,4.000000,4.000000,55.000000,0.000000,0.654574,0.140625,0.687500,0.281250,0.843763,-0.531258,-0.031250,-76.563667,-76.563667,38.281834
1583521501.797692,111.000000,0.000000,4496.410156,4317.948730,4132.307617,4031.281982,4368.717773,1023.000000,4.000000,,,,0.000000,4.000000,4.000000,4.000000,4.000000,4.000000,,,,,,,,,,,,
1583521501.805390,112.000000,0.000000,4492.820313,4324.102539,4133.846191,4039.487061,4358.974121,450.000000,4.000000,,,,0.000000,4.000000,4.000000,4.000000,4.000000,4.000000,56.000000,0.000000,0.654574,0.140625,0.687500,0.281250,0.843763,-0.531258,-0.031250,-76.563667,-76.563667,38.281834
1583521501.813286,113.000000,0.000000,4498.974121,4330.256348,4132.307617,4054.871826,4359.487305,450.000000,4.000000,,,,0.000000,4.000000,4.000000,4.000000,4.000000,4.000000,,,,,,,,,,,,
1583521501.820983,114.000000,0.000000,4524.102539,4338.461426,4135.897461,4054.358887,4393.333496,450.000000,4.000000,,,,0.000000,4.000000,4.000000,4.000000,4.000000,4.000000,57.000000,0.000000,0.654574,0.140625,0.687500,0.281250,0.843763,-0.531258,-0.031250,-76.563667,-76.563667,38.281834
1583521501.828879,115.000000,0.000000,4531.794922,4342.563965,4148.717773,4063.076904,4411.794922,1023.000000,4.000000,,,,0.000000,4.000000,4.000000,4.000000,4.000000,4.000000,,,,,,,,,,,,
1583521501.836578,116.000000,0.000000,4518.974121,4336.410156,4132.307617,4061.538574,4407.179688,450.000000,4.000000,,,,0.000000,4.000000,4.000000,4.000000,4.000000,4.000000,58.000000,0.000000,0.654574,0.140625,0.687500,0.281250,0.843763,-0.531258,-0.031250,-76.563667,-76.563667,38.281834
1583521501.844475,117.000000,0.000000,4507.179688,4326.153809,4105.128418,4051.794922,4387.692383,450.000000,4.000000,,,,0.000000,4.000000,4.000000,4.000000,4.000000,4.000000,,,,,,,,,,,,
1583521501.852372,118.000000,0.000000,4504.102539,4328.205078,4111.282227,4038.974365,4375.897461,450.000000,4.000000,,,,0.000000,4.000000,4.000000,4.000000,4.000000,4.000000,59.000000,0.000000,0.654574,0.140625,0.687500,0.281250,0.875013,-0.531258,-0.031250,-76.563667,-76.563667,38.281834
1583521501.860268,119.000000,0.000000,4475.897461,4322.051270,4119.487305,4043.589844,4363.077148,1023.000000,4.000000,,,,0.000000,4.000000,4.000000,4.000000,4.000000,4.000000,,,,,,,,,,,,
1583521501.867965,120.000000,0.000000,4460.512695,4322.051270,4111.794922,4047.179443,4353.846191,450.000000,4.000000,,,,0.000000,4.000000,4.000000,4.000000,4.000000,4.000000,60.000000,0.000000,0.654574,0.140625,0.687500,0.281250,0.875013,-0.531258,-0.031250,-76.563667,-76.563667,38.281834
1583521501.875861,121.000000,0.000000,4461.025879,4328.205078,4110.769043,4040.512939,4340.000000,450.000000,4.000000,,,,0.000000,4.000000,4.000000,4.000000,4.000000,4.000000,,,,,,,,,,,,
1583521501.883558,122.000000,0.000000,4456.922852,4338.461426,4120.512695,4040.000000,4336.922852,450.000000,4.000000,,,,0.000000,4.000000,4.000000,4.000000,4.000000,4.000000,61.000000,0.000000,0.654574,0.140625,0.687500,0.281250,0.843763,-0.531258,-0.031250,-76.563667,-76.563667,38.281834
1583521501.891454,123.000000,0.000000,4445.641113,4338.461426,4114.871582,4040.000000,4325.128418,1023.000000,4.000000,,,,0.000000,4.000000,4.000000,4.000000,4.000000,4.000000,,,,,,,,,,,,
1583521501.899151,124.000000,0.000000,4452.820313,4334.358887,4106.153809,4043.076904,4323.589844,450.000000,4.000000,,,,0.000000,4.000000,4.000000,4.000000,4.000000,4.000000,62.000000,0.000000,0.654574,0.140625,0.687500,0.281250,0.843763,-0.531258,-0.031250,-76.563667,-76.563667,38.281834
1583521501.907046,125.000000,0.000000,4451.282227,4326.153809,4113.333496,4044.102539,4334.871582,450.000000,4.000000,,,,0.000000,4.000000,4.000000,4.000000,4.000000,4.000000,,,,,,,,,,,,
1583521501.914743,126.000000,0.000000,4447.692383,4328.205078,4133.333496,4049.743652,4345.128418,450.000000,4.000000,,,,0.000000,4.000000,4.000000,4.000000,4.000000,4.000000,63.000000,0.000000,0.654574,0.140625,0.687500,0.281250,0.843763,-0.531258,-0.031250,-76.563667,-76.563667,38.281834
1583521501.922639,127.000000,0.000000,4450.256348,4332.307617,4136.410156,4042.051270,4338.974121,243.000000,4.000000,,,,0.000000,4.000000,4.000000,4.000000,4.000000,4.000000,,,,,,,,,,,,
1583521501.930337,0.000000,0.000000,4452.307617,4332.307617,4138.461426,4052.820557,4333.846191,450.000000,4.000000,,,,0.000000,4.000000,4.000000,4.000000,4.000000,4.000000,0.000000,0.000000,0.654574,0.140625,0.687500,0.281250,0.843763,-0.531258,-0.031250,-76.563667,-76.563667,38.281834
1583521501.938233,1.000000,0.000000,4445.641113,4328.205078,4145.128418,4060.000000,4336.410156,450.000000,4.000000,,,,0.000000,4.000000,4.000000,4.000000,4.000000,4.000000,,,,,,,,,,,,
1583521501.946131,2.000000,0.000000,4410.256348,4309.743652,4140.000000,4056.410156,4306.153809,1023.000000,4.000000,,,,0.000000,4.000000,4.000000,4.000000,4.000000,4.000000,1.000000,0.000000,0.654574,0.140625,0.687500,0.281250,0.843763,-0.531258,-0.031250,-76.563667,-76.563667,38.281834
1583521501.954027,3.000000,0.000000,4381.538574,4299.487305,4124.615234,4044.102539,4275.384766,450.000000,4.000000,,,,0.000000,4.000000,4.000000,4.000000,4.000000,4.000000,,,,,,,,,,,,
1583521501.961925,4.000000,0.000000,4386.666504,4301.538574,4113.846191,4049.230713,4287.179688,1023.000000,4.000000,,,,0.000000,4.000000,4.000000,4.000000,4.000000,4.000000,2.000000,0.000000,0.654574,0.140625,0.687500,0.281250,0.843763,-0.531258,-0.031250,-76.563667,-76.563667,38.281834
1583521501.969821,5.000000,0.000000,4405.128418,4307.692383,4109.230957,4044.102539,4309.230957,450.000000,4.000000,,,,0.000000,4.000000,4.000000,4.000000,4.000000,4.000000,,,,,,,,,,,,
1583521501.977518,6.000000,0.000000,4390.256348,4301.538574,4115.897461,4030.769287,4286.666504,1023.000000,4.000000,,,,0.000000,4.000000,4.000000,4.000000,4.000000,4.000000,3.000000,0.000000,0.654574,0.140625,0.687500,0.281250,0.843763,-0.531258,-0.031250,-76.563667,-76.563667,38.281834
1583521501.985213,7.000000,0.000000,4379.487305,4305.641113,4125.641113,4035.384521,4276.410156,450.000000,4.000000,,,,0.000000,4.000000,4.000000,4.000000,4.000000,4.000000,,,,,,,,,,,,
1583521501.992909,8.000000,0.000000,4387.692383,4303.589844,4125.641113,4054.358887,4287.692383,450.000000,4.000000,,,,0.000000,4.000000,4.000000,4.000000,4.000000,4.000000,4.000000,0.000000,0.654574,0.140625,0.687500,0.281250,0.875013,-0.531258,-0.031250,-76.563667,-76.563667,38.281834
1583521502.000605,9.000000,0.000000,4411.794922,4303.589844,4131.794922,4055.384521,4301.025879,273.000000,4.000000,,,,0.000000,4.000000,4.000000,4.000000,2.000000,4.000000,,,,,,,,,,,,
1583521502.008302,10.000000,0.000000,4421.025879,4305.641113,4138.974121,4044.102539,4307.692383,450.000000,4.000000,,,,0.000000,4.000000,4.000000,4.000000,2.000000,4.000000,5.000000,0.000000,0.654574,0.140625,0.687500,0.281250,0.843763,-0.531258,-0.031250,-76.563667,-76.563667,38.281834
1583521502.016198,11.000000,0.000000,4425.641113,4317.948730,4140.512695,4055.384521,4321.025879,1023.000000,4.000000,,,,0.000000,4.000000,4.000000,4.000000,2.000000,4.000000,,,,,,,,,,,,
1583521502.023896,12.000000,0.000000,4425.128418,4317.948730,4136.922852,4062.564209,4313.333496,450.000000,4.000000,,,,0.000000,4.000000,4.000000,4.000000,2.000000,4.000000,6.000000,0.000000,0.654574,0.140625,0.687500,0.281250,0.843763,-0.531258,-0.031250,-76.563667,-76.563667,38.281834
1583521502.031792,13.000000,0.000000,4427.179688,4309.743652,4136.922852,4065.641113,4296.922852,450.000000,4.000000,,,,0.000000,4.000000,4.000000,4.000000,2.000000,4.000000,,,,,,,,,,,,
1583521502.039489,14.000000,0.000000,4435.384766,4311.794922,4133.846191,4055.897461,4308.717773,450.000000,4.000000,,,,0.000000,4.000000,4.000000,4.000000,2.000000,4.000000,7.000000,0.000000,0.654574,0.140625,0.687500,0.281250,0.843763,-0.531258,-0.031250,-76.563667,-76.563667,38.281834
1583521502.047385,15.000000,0.000000,4439.487305,4317.948730,4137.948730,4048.205078,4322.563965,1023.000000,4.000000,,,,0.000000,4.000000,4.000000,4.000000,2.000000,4.000000,,,,,,,,,,,,
1583521502.055084,16.000000,0.000000,4424.615234,4315.897461,4146.666504,4037.948730,4291.282227,0.000000,4.000000,,,,0.000000,4.000000,4.000000,4.000000,2.000000,4.000000,8.000000,0.000000,0.654574,0.140625,0.687500,0.281250,0.843763,-0.531258,-0.031250,-76.563667,-76.563667,38.281834
1583521502.062980,17.000000,0.000000,4405.641113,4307.692383,4151.282227,4041.025635,4252.820313,0.000000,4.000000,,,,0.000000,4.000000,4.000000,4.000000,2.000000,4.000000,,,,,,,,,,,,
1583521502.070877,18.000000,0.000000,4400.000000,4299.487305,4138.461426,4032.820557,4253.333496,0.000000,4.000000,,,,0.000000,4.000000,4.000000,4.000000,2.000000,4.000000,9.000000,0.000000,0.654574,0.140625,0.687500,0.281250,0.843763,-0.531258,-0.031250,-76.563667,-76.563667,38.281834
1583521502.078773,19.000000,0.000000,4386.153809,4289.230957,4120.512695,4026.666748,4244.615234,0.000000,4.000000,,,,0.000000,4.000000,4.000000,4.000000,2.000000,4.000000,,,,,,,,,,,,
1583521502.086470,20.000000,0.000000,4382.051270,4289.230957,4110.769043,4030.769287,4232.820313,0.000000,4.000000,,,,0.000000,4.000000,4.000000,4.000000,2.000000,4.000000,10.000000,0.000000,0.654574,0.140625,0.687500,0.281250,0.843763,-0.531258,-0.031250,-76.563667,-76.563667,38.281834
1583521502.094366,21.000000,0.000000,4392.307617,4293.333496,4115.384766,4042.564209,4232.820313,0.000000,4.000000,,,,0.000000,4.000000,4.000000,4.000000,2.000000,4.000000,,,,,,,,,,,,
1583521502.102063,22.000000,0.000000,4418.461426,4305.641113,4133.846191,4042.564209,4245.128418,0.000000,4.000000,,,,0.000000,4.000000,4.000000,4.000000,2.000000,4.000000,11.000000,0.000000,0.654574,0.140625,0.687500,0.281250,0.843763,-0.531258,-0.031250,-76.563667,-76.563667,38.281834
1583521502.109958,23.000000,0.000000,4430.256348,4303.589844,4143.077148,4038.461426,4251.794922,0.000000,4.000000,,,,0.000000,4.000000,4.000000,4.000000,2.000000,4.000000,,,,,,,,,,,,
1583521502.117655,24.000000,0.000000,4426.666504,4295.384766,4132.307617,4034.358887,4249.230957,0.000000,4.000000,,,,0.000000,4.000000,4.000000,4.000000,2.000000,4.000000,12.000000,0.000000,0.654574,0.140625,0.687500,0.281250,0.875013,-0.531258,-0.031250,-76.563667,-76.563667,38.281834
1583521502.125551,25.000000,0.000000,4409.230957,4293.333496,4127.179688,4032.820557,4223.589844,0.000000,4.000000,,,,0.000000,4.000000,4.000000,4.000000,2.000000,4.000000,,,,,,,,,,,,
1583521502.133248,26.000000,0.000000,4403.589844,4309.743652,4149.230957,4040.512939,4207.692383,0.000000,4.000000,,,,0.000000,4.000000,4.000000,4.000000,2.000000,4.000000,13.000000,0.000000,0.654574,0.140625,0.687500,0.281250,0.843763,-0.531258,-0.031250,-76.563667,-76.563667,38.281834
1583521502.141143,27.000000,0.000000,4391.282227,4303.589844,4154.358887,4037.948730,4193.846191,0.000000,4.000000,,,,0.000000,4.000000,4.000000,4.000000,2.000000,4.000000,,,,,,,,,,,,
1583521502.148841,28.000000,0.000000,4362.051270,4285.128418,4136.922852,4042.564209,4172.820313,0.000000,4.000000,,,,0.000000,4.000000,4.000000,4.000000,2.000000,4.000000,14.000000,0.000000,0.654574,0.140625,0.687500,0.281250,0.843763,-0.531258,-0.031250,-76.563667,-76.563667,38.281834
1583521502.156737,29.000000,0.000000,4331.794922,4274.871582,4125.128418,4046.666748,4153.333496,0.000000,4.000000,,,,0.000000,4.000000,4.000000,4.000000,2.000000,4.000000,,,,,,,,,,,,
1583521502.164635,30.000000,0.000000,4328.205078,4281.025879,4126.666504,4048.205078,4147.179688,0.000000,4.000000,,,,0.000000,4.000000,4.000000,4.000000,2.000000,4.000000,15.000000,0.000000,0.654574,0.140625,0.687500,0.281250,0.843763,-0.531258,-0.031250,-76.563667,-76.563667,38.281834
1583521502.172531,31.000000,0.000000,4342.051270,4283.077148,4114.871582,4042.564209,4148.205078,0.000000,4.000000,,,,0.000000,4.000000,4.000000,4.000000,2.000000,4.000000,,,,,,,,,,,,
1583521502.180228,32.000000,0.000000,4353.333496,4276.922852,4106.153809,4054.358887,4155.384766,0.000000,4.000000,,,,0.000000,4.000000,4.000000,4.000000,2.000000,4.000000,16.000000,0.000000,0.654574,0.140625,0.687500,0.281250,0.843763,-0.531258,-0.031250,-76.563667,-76.563667,38.281834
1583521502.187923,33.000000,0.000000,4367.692383,4276.922852,4117.436035,4050.769287,4164.615234,0.000000,4.000000,,,,0.000000,4.000000,4.000000,4.000000,2.000000,4.000000,,,,,,,,,,,,
1583521502.195619,34.000000,0.000000,4375.384766,4289.230957,4149.743652,4046.153809,4157.436035,0.000000,4.000000,,,,0.000000,4.000000,4.000000,4.000000,2.000000,4.000000,17.000000,0.000000,0.654574,0.140625,0.687500,0.281250,0.843763,-0.531258,-0.031250,-76.563667,-76.563667,38.281834
1583521502.203315,35.000000,0.000000,4380.512695,4303.589844,4173.333496,4044.615479,4149.230957,0.000000,4.000000,,,,0.000000,4.000000,4.000000,4.000000,2.000000,4.000000,,,,,,,,,,,,
1583521502.211012,36.000000,0.000000,4373.333496,4297.436035,4173.846191,4045.641113,4143.077148,0.000000,4.000000,,,,0.000000,4.000000,4.000000,4.000000,2.000000,4.000000,18.000000,0.000000,0.654574,0.140625,0.687500,0.281250,0.843763,-0.531258,-0.031250,-76.563667,-76.563667,38.281834
1583521502.218908,37.000000,0.000000,4366.153809,4297.436035,4177.436035,4045.128174,4138.974121,0.000000,4.000000,,,,0.000000,4.000000,4.000000,4.000000,2.000000,4.000000,,,,,,,,,,,,
1583521502.226606,38.000000,0.000000,4353.333496,4301.538574,4184.102539,4054.871826,4116.922852,0.000000,4.000000,,,,0.000000,4.000000,4.000000,4.000000,2.000000,4.000000,19.000000,0.000000,0.654574,0.140625,0.687500,0.281250,0.843763,-0.531258,-0.031250,-76.563667,-76.563667,38.281834
1583521502.234502,39.000000,0.000000,4343.077148,4299.487305,4168.717773,4052.307617,4098.461426,0.000000,4.000000,,,,0.000000,4.000000,4.000000,4.000000,2.000000,4.000000,,,,,,,,,,,,
1583521502.242199,40.000000,0.000000,4329.230957,4283.077148,4141.538574,4034.358887,4076.923096,0.000000,4.000000,,,,0.000000,4.000000,4.000000,4.000000,2.000000,4.000000,20.000000,0.000000,0.654574,0.140625,0.687500,0.281250,0.843763,-0.531258,-0.031250,-76.563667,-76.563667,38.281834
1583521502.250095,41.000000,0.000000,4329.743652,4287.179688,4140.000000,4031.281982,4070.256348,0.000000,4.000000,,,,0.000000,4.000000,4.000000,4.000000,2.000000,4.000000,,,,,,,,,,,,
1583521502.257793,42.000000,0.000000,4335.384766,4299.487305,4147.179688,4044.615479,4076.923096,0.000000,4.000000,,,,0.000000,4.000000,4.000000,4.000000,2.000000,4.000000,21.000000,0.000000,0.654574,0.140625,0.687500,0.281250,0.843763,-0.531258,-0.031250,-76.563667,-76.563667,38.281834
1583521502.265690,43.000000,0.000000,4351.282227,4305.641113,4154.871582,4057.948730,4093.333252,0.000000,4.000000,,,,0.000000,4.000000,4.000000,4.000000,2.000000,4.000000,,,,,,,,,,,,
1583521502.273587,44.000000,0.000000,4351.282227,4299.487305,4154.871582,4044.615479,4087.179443,0.000000,4.000000,,,,0.000000,4.000000,4.000000,4.000000,2.000000,4.000000,22.000000,0.000000,0.654574,0.140625,0.687500,0.281250,0.843763,-0.531258,-0.031250,-76.563667,-76.563667,38.281834
1583521502.281483,45.000000,0.000000,4326.666504,4291.282227,4150.769043,4039.487061,4065.641113,0.000000,4.000000,,,,0.000000,4.000000,4.000000,4.000000,2.000000,4.000000,,,,,,,,,,,,
1583521502.289180,46.000000,0.000000,4310.256348,4299.487305,4151.794922,4038.461426,4057.948730,0.000000,4.000000,,,,0.000000,4.000000,4.000000,4.000000,2.000000,4.000000,23.000000,0.000000,0.654574,0.140625,0.687500,0.281250,0.843763,-0.531258,-0.031250,-76.563667,-76.563667,38.281834
1583521502.297076,47.000000,0.000000,4317.948730,4307.692383,4172.307617,4049.230713,4066.153809,0.000000,4.000000,,,,0.000000,4.000000,4.000000,4.000000,2.000000,4.000000,,,,,,,,,,,,
1583521502.304774,48.000000,0.000000,4316.922852,4309.743652,4188.205078,4047.179443,4067.692383,0.000000,4.000000,,,,0.000000,4.000000,4.000000,4.000000,2.000000,4.000000,24.000000,0.000000,0.654574,0.140625,0.687500,0.281250,0.843763,-0.531258,-0.031250,-76.563667,-76.563667,38.281834
1583521502.312670,49.000000,0.000000,4294.871582,4313.846191,4175.897461,4045.128174,4049.743652,0.000000,4.000000,,,,0.000000,4.000000,4.000000,4.000000,2.000000,4.000000,,,,,,,,,,,,
1583521502.320567,50.000000,0.000000,4276.410156,4317.948730,4147.179688,4039.487061,4027.692383,0.000000,4.000000,,,,0.000000,4.000000,4.000000,4.000000,2.000000,4.000000,25.000000,0.000000,0.654574,0.140625,0.687500,0.281250,0.843763,-0.531258,-0.031250,-76.563667,-76.563667,38.281834
1583521502.328462,51.000000,0.000000,4241.538574,4299.487305,4127.179688,4041.025635,3993.333252,0.000000,4.000000,,,,0.000000,4.000000,4.000000,4.000000,2.000000,4.000000,,,,,,,,,,,,
1583521502.336160,52.000000,0.000000,4220.512695,4291.282227,4118.461426,4035.897461,3978.974365,0.000000,4.000000,,,,0.000000,4.000000,4.000000,4.000000,2.000000,4.000000,26.000000,0.000000,0.654574,0.140625,0.687500,0.281250,0.843763,-0.531258,-0.031250,-76.563667,-76.563667,38.281834
1583521502.344057,53.000000,0.000000,4218.461426,4291.282227,4107.692383,4032.820557,3978.461426,0.000000,4.000000,,,,0.000000,4.000000,4.000000,4.000000,2.000000,4.000000,,,,,,,,,,,,
1583521502.351954,54.000000,0.000000,4222.563965,4291.282227,4096.922852,4035.384521,3979.487061,0.000000,4.000000,,,,0.000000,4.000000,4.000000,4.000000,2.000000,4.000000,27.000000,0.000000,0.654574,0.140625,0.687500,0.281250,0.843763,-0.531258,-0.031250,-76.563667,-76.563667,38.281834
1583521502.359851,55.000000,0.000000,4209.743652,4283.077148,4090.256348,4038.974365,3963.076904,0.000000,4.000000,,,,0.000000,4.000000,4.000000,4.000000,2.000000,4.000000,,,,,,,,,,,,
1583521502.367548,56.000000,0.000000,4206.666504,4291.282227,4102.563965,4045.641113,3954.358887,0.000000,4.000000,,,,0.000000,4.000000,4.000000,4.000000,2.000000,4.000000,28.000000,0.000000,0.654574,0.140625,0.687500,0.281250,0.875013,-0.531258,-0.031250,-76.563667,-76.563667,38.281834
1583521502.375445,57.000000,0.000000,4211.282227,4293.333496,4115.384766,4046.666748,3950.256348,0.000000,4.000000,,,,0.000000,4.000000,4.000000,4.000000,2.000000,4.000000,,,,,,,,,,,,
1583521502.383141,58.000000,0.000000,4211.794922,4285.128418,4114.871582,4046.153809,3941.025635,0.000000,4.000000,,,,0.000000,4.000000,4.000000,4.000000,2.000000,4.000000,29.000000,0.000000,0.654574,0.140625,0.687500,0.281250,0.875013,-0.531258,-0.031250,-76.563667,-76.563667,38.281834
1583521502.390837,59.000000,0.000000,4200.512695,4276.922852,4112.820313,4038.461426,3919.487061,0.000000,4.000000,,,,0.000000,4.000000,4.000000,4.000000,2.000000,4.000000,,,,,,,,,,,,
1583521502.398533,60.000000,0.000000,4193.846191,4285.128418,4126.666504,4042.564209,3909.230713,0.000000,4.000000,,,,0.000000,4.000000,4.000000,4.000000,2.000000,4.000000,30.000000,0.000000,0.654574,0.140625,0.687500,0.281250,0.843763,-0.531258,-0.031250,-76.563667,-76.563667,38.281834
1583521502.406228,61.000000,0.000000,4185.128418,4283.077148,4121.538574,4040.512939,3897.948730,0.000000,4.000000,,,,0.000000,4.000000,4.000000,4.000000,2.000000,4.000000,,,,,,,,,,,,
1583521502.413925,62.000000,0.000000,4178.461426,4278.974121,4101.538574,4044.102539,3879.487061,0.000000,4.000000,,,,0.000000,4.000000,4.000000,4.000000,2.000000,4.000000,31.000000,0.000000,0.654574,0.140625,0.687500,0.281250,0.843763,-0.531258,-0.031250,-76.563667,-76.563667,38.281834
1583521502.421822,63.000000,0.000000,4176.922852,4281.025879,4095.897461,4042.051270,3879.487061,0.000000,4.000000,,,,0.000000,4.000000,4.000000,4.000000,2.000000,4.000000,,,,,,,,,,,,
1583521502.429519,64.000000,0.000000,4164.102539,4281.025879,4102.563965,4040.512939,3876.410156,450.000000,4.000000,,,,0.000000,4.000000,4.000000,4.000000,2.000000,4.000000,32.000000,0.000000,0.654574,0.140625,0.687500,0.281250,0.843763,-0.531258,-0.062501,-76.563667,-76.563667,38.281834
1583521502.437415,65.000000,0.000000,4152.307617,4274.871582,4087.692383,4021.025635,3845.128174,450.000000,4.000000,,,,0.000000,4.000000,4.000000,4.000000,2.000000,4.000000,,,,,,,,,,,,
1583521502.445112,66.000000,0.000000,4150.769043,4270.769043,4071.794922,4016.410156,3808.718018,1023.000000,4.000000,,,,0.000000,4.000000,4.000000,4.000000,2.000000,4.000000,33.000000,0.000000,0.654574,0.140625,0.687500,0.281250,0.875013,-0.531258,-0.062501,-76.563667,-76.563667,38.281834
1583521502.453008,67.000000,0.000000,4161.538574,4287.179688,4078.461426,4026.666748,3807.179443,450.000000,4.000000,,,,0.000000,4.000000,4.000000,4.000000,2.000000,4.000000,,,,,,,,,,,,
1583521502.460705,68.000000,0.000000,4165.128418,4297.436035,4086.153809,4034.871826,3802.564209,1023.000000,4.000000,,,,0.000000,4.000000,4.000000,4.000000,2.000000,4.000000,34.000000,0.000000,0.654574,0.140625,0.687500,0.281250,0.875013,-0.500008,-0.031250,-76.563667,-76.563667,38.281834
1583521502.468601,69.000000,0.000000,4167.692383,4291.282227,4084.102539,4028.205078,3784.102539,450.000000,4.000000,,,,0.000000,4.000000,4.000000,4.000000,2.000000,4.000000,,,,,,,,,,,,
1583521502.476298,70.000000,0.000000,4156.922852,4278.974121,4082.051270,4023.076904,3761.025635,1023.000000,4.000000,,,,0.000000,4.000000,4.000000,4.000000,2.000000,4.000000,35.000000,0.000000,0.654574,0.140625,0.687500,0.281250,0.875013,-0.500008,-0.062501,-76.563667,-76.563667,38.281834
1583521502.484195,71.000000,0.000000,4163.589844,4289.230957,4081.025635,4022.051270,3761.025635,450.000000,4.000000,,,,0.000000,4.000000,4.000000,4.000000,2.000000,4.000000,,,,,,,,,,,,
1583521502.492091,72.000000,0.000000,4175.384766,4287.179688,4080.000000,4023.076904,3763.076904,450.000000,4.000000,,,,0.000000,4.000000,4.000000,4.000000,2.000000,4.000000,36.000000,0.000000,0.654574,0.140625,0.687500,0.281250,0.843763,-0.531258,-0.031250,-76.563667,-76.563667,38.281834
1583521502.499987,73.000000,0.000000,4163.589844,4274.871582,4080.000000,4030.256348,3747.692383,282.000000,4.000000,,,,0.000000,4.000000,4.000000,4.000000,4.000000,4.000000,,,,,,,,,,,,
1583521502.507684,74.000000,0.000000,4134.358887,4262.563965,4064.615479,4025.641113,3716.923096,450.000000,4.000000,,,,0.000000,4.000000,4.000000,4.000000,4.000000,4.000000,37.000000,0.000000,0.654574,0.140625,0.687500,0.281250,0.843763,-0.562509,-0.031250,-76.563667,-76.563667,38.281834
1583521502.515580,75.000000,0.000000,4143.589844,4268.717773,4066.666748,4033.333252,3710.256348,1023.000000,4.000000,,,,0.000000,4.000000,4.000000,4.000000,4.000000,4.000000,,,,,,,,,,,,
1583521502.523277,76.000000,0.000000,4164.102539,4278.974121,4081.025635,4032.820557,3709.743652,450.000000,4.000000,,,,0.000000,4.000000,4.000000,4.000000,4.000000,4.000000,38.000000,0.000000,0.654574,0.140625,0.687500,0.281250,0.843763,-0.562509,-0.031250,-76.563667,-76.563667,38.281834
1583521502.531174,77.000000,0.000000,4140.512695,4274.871582,4080.512939,4029.743652,3684.102539,450.000000,4.000000,,,,0.000000,4.000000,4.000000,4.000000,4.000000,4.000000,,,,,,,,,,,,
1583521502.539072,78.000000,0.000000,4104.102539,4266.666504,4074.871826,4031.794922,3654.358887,450.000000,4.000000,,,,0.000000,4.000000,4.000000,4.000000,4.000000,4.000000,39.000000,0.000000,0.654574,0.140625,0.687500,0.281250,0.843763,-0.562509,-0.031250,-76.563667,-76.563667,38.281834
1583521502.546968,79.000000,0.000000,4100.000000,4266.666504,4084.102539,4048.205078,3645.641113,1023.000000,4.000000,,,,0.000000,4.000000,4.000000,4.000000,4.000000,4.000000,,,,,,,,,,,,
1583521502.554666,80.000000,0.000000,4111.282227,4274.871582,4085.128174,4044.102539,3644.615479,450.000000,4.000000,,,,0.000000,4.000000,4.000000,4.000000,4.000000,4.000000,40.000000,0.000000,0.654574,0.140625,0.687500,0.281250,0.843763,-0.562509,-0.031250,-76.563667,-76.563667,38.281834
1583521502.562562,81.000000,0.000000,4106.153809,4270.769043,4075.897461,4043.076904,3632.307617,450.000000,4.000000,,,,0.000000,4.000000,4.000000,4.000000,4.000000,4.000000,,,,,,,,,,,,
