title:Nothing, start timestamp:1583521669.067155, stop timestamp:1583521730.018802, headset type:INSIGHT, headset serial:A1D2068CFA, headset firmware:930, subject name:Corey, channels:31, sampling rate:eeg_128;mot_64, samples:7819      , version:2.0
Timestamp,EEG.Counter,EEG.Interpolated,EEG.AF3,EEG.T7,EEG.Pz,EEG.T8,EEG.AF4,EEG.RawCq,EEG.Battery,MarkerIndex,MarkerType,MarkerValueInt,EEG.MarkerHardware,CQ.AF3,CQ.T7,CQ.Pz,CQ.T8,CQ.AF4,MOT.CounterMems,MOT.InterpolatedMems,MOT.Q0,MOT.Q1,MOT.Q2,MOT.Q3,MOT.AccX,MOT.AccY,MOT.AccZ,MOT.MagX,MOT.MagY,MOT.MagZ
1583521669.067155,62.000000,0.000000,4298.461426,4278.974121,4101.538574,4150.256348,4132.820313,0.000000,4.000000,,,,0.000000,4.000000,4.000000,4.000000,4.000000,4.000000,31.000000,0.000000,0.703299,0.171875,0.671875,0.156250,0.906264,-0.406256,-0.031250,-76.563667,-76.563667,38.281834
1583521669.075051,63.000000,0.000000,4311.282227,4278.974121,4100.512695,4170.769043,4127.179688,0.000000,4.000000,,,,0.000000,4.000000,4.000000,4.000000,4.000000,4.000000,,,,,,,,,,,,
1583521669.082748,64.000000,0.000000,4306.666504,4278.974121,4100.512695,4173.846191,4129.230957,450.000000,4.000000,,,,0.000000,4.000000,4.000000,4.000000,4.000000,4.000000,32.000000,0.000000,0.703299,0.171875,0.671875,0.156250,0.906264,-0.406256,0.000000,-76.563667,-76.563667,38.281834
1583521669.090644,65.000000,0.000000,4305.641113,4272.820313,4103.077148,4169.743652,4138.461426,450.000000,4.000000,,,,0.000000,4.000000,4.000000,4.000000,4.000000,4.000000,,,,,,,,,,,,
1583521669.098342,66.000000,0.000000,4311.794922,4270.769043,4099.487305,4182.563965,4132.820313,1023.000000,4.000000,,,,0.000000,4.000000,4.000000,4.000000,4.000000,4.000000,33.000000,0.000000,0.703299,0.171875,0.671875,0.156250,0.906264,-0.406256,-0.031250,-76.563667,-76.563667,38.281834
1583521669.106239,67.000000,0.000000,4315.897461,4281.025879,4091.281982,4196.410156,4123.589844,450.000000,4.000000,,,,0.000000,4.000000,4.000000,4.000000,4.000000,4.000000,,,,,,,,,,,,
1583521669.114137,68.000000,0.000000,4308.205078,4270.769043,4082.051270,4197.948730,4113.333496,1023.000000,4.000000,,,,0.000000,4.000000,4.000000,4.000000,4.000000,4.000000,34.000000,0.000000,0.703299,0.171875,0.671875,0.156250,0.906264,-0.406256,0.000000,-76.563667,-76.563667,38.281834
1583521669.122034,69.000000,0.000000,4295.384766,4252.307617,4066.666748,4183.589844,4109.230957,450.000000,4.000000,,,,0.000000,4.000000,4.000000,4.000000,4.000000,4.000000,,,,,,,,,,,,
1583521669.129731,70.000000,0.000000,4285.128418,4252.307617,4060.000000,4186.666504,4102.563965,1023.000000,4.000000,,,,0.000000,4.000000,4.000000,4.000000,4.000000,4.000000,35.000000,0.000000,0.703299,0.171875,0.671875,0.156250,0.906264,-0.437507,-0.031250,-76.563667,-76.563667,38.281834
1583521669.137426,71.000000,0.000000,4297.948730,4272.820313,4071.794922,4218.461426,4108.717773,450.000000,4.000000,,,,0.000000,4.000000,4.000000,4.000000,4.000000,4.000000,,,,,,,,,,,,
1583521669.145123,72.000000,0.000000,4297.948730,4266.666504,4076.410156,4231.794922,4102.051270,450.000000,4.000000,,,,0.000000,4.000000,4.000000,4.000000,4.000000,4.000000,36.000000,0.000000,0.703299,0.171875,0.671875,0.156250,0.906264,-0.437507,0.000000,-76.563667,-76.563667,38.281834
1583521669.152819,73.000000,0.000000,4294.358887,4256.410156,4066.666748,4221.538574,4083.589844,1023.000000,4.000000,,,,0.000000,4.000000,4.000000,4.000000,4.000000,4.000000,,,,,,,,,,,,
1583521669.160517,74.000000,0.000000,4294.358887,4250.256348,4053.846191,4218.974121,4078.974365,450.000000,4.000000,,,,0.000000,4.000000,4.000000,4.000000,4.000000,4.000000,37.000000,0.000000,0.703299,0.171875,0.671875,0.156250,0.906264,-0.437507,0.000000,-76.563667,-76.563667,38.281834
1583521669.168414,75.000000,0.000000,4295.384766,4248.205078,4057.435791,4225.641113,4092.820557,1023.000000,4.000000,,,,0.000000,4.000000,4.000000,4.000000,4.000000,4.000000,,,,,,,,,,,,
1583521669.176112,76.000000,0.000000,4303.077148,4254.358887,4066.153809,4230.769043,4095.384521,450.000000,4.000000,,,,0.000000,4.000000,4.000000,4.000000,4.000000,4.000000,38.000000,0.000000,0.703299,0.171875,0.671875,0.156250,0.875013,-0.437507,-0.031250,-76.563667,-76.563667,38.281834
1583521669.184010,77.000000,0.000000,4325.128418,4260.512695,4065.128174,4251.282227,4099.487305,450.000000,4.000000,,,,0.000000,4.000000,4.000000,4.000000,4.000000,4.000000,,,,,,,,,,,,
1583521669.191907,78.000000,0.000000,4321.538574,4256.410156,4051.281982,4253.333496,4100.512695,450.000000,4.000000,,,,0.000000,4.000000,4.000000,4.000000,4.000000,4.000000,39.000000,0.000000,0.703299,0.171875,0.671875,0.156250,0.906264,-0.437507,-0.031250,-76.563667,-76.563667,38.281834
1583521669.199804,79.000000,0.000000,4303.077148,4248.205078,4048.205078,4248.205078,4089.230713,1023.000000,4.000000,,,,0.000000,4.000000,4.000000,4.000000,4.000000,4.000000,,,,,,,,,,,,
1583521669.207501,80.000000,0.000000,4302.051270,4244.102539,4052.307617,4260.000000,4087.179443,450.000000,4.000000,,,,0.000000,4.000000,4.000000,4.000000,4.000000,4.000000,40.000000,0.000000,0.703299,0.171875,0.671875,0.156250,0.906264,-0.437507,-0.031250,-76.563667,-76.563667,38.281834
1583521669.215398,81.000000,0.000000,4304.102539,4244.102539,4060.512939,4269.230957,4090.769287,450.000000,4.000000,,,,0.000000,4.000000,4.000000,4.000000,4.000000,4.000000,,,,,,,,,,,,
1583521669.223095,82.000000,0.000000,4309.743652,4252.307617,4064.615479,4266.666504,4093.333252,450.000000,4.000000,,,,0.000000,4.000000,4.000000,4.000000,4.000000,4.000000,41.000000,0.000000,0.699295,0.187500,0.671875,0.156250,0.906264,-0.437507,-0.031250,-76.563667,-76.563667,38.281834
1583521669.230992,83.000000,0.000000,4309.230957,4248.205078,4058.461426,4276.410156,4102.051270,1023.000000,4.000000,,,,0.000000,4.000000,4.000000,4.000000,4.000000,4.000000,,,,,,,,,,,,
1583521669.238689,84.000000,0.000000,4300.000000,4242.051270,4050.769287,4281.538574,4111.282227,450.000000,4.000000,,,,0.000000,4.000000,4.000000,4.000000,4.000000,4.000000,42.000000,0.000000,0.699295,0.187500,0.671875,0.156250,0.906264,-0.437507,-0.031250,-76.563667,-76.563667,38.281834
1583521669.246585,85.000000,0.000000,4299.487305,4246.153809,4059.487061,4288.205078,4100.512695,450.000000,4.000000,,,,0.000000,4.000000,4.000000,4.000000,4.000000,4.000000,,,,,,,,,,,,
1583521669.254283,86.000000,0.000000,4312.820313,4256.410156,4075.897461,4308.205078,4097.948730,450.000000,4.000000,,,,0.000000,4.000000,4.000000,4.000000,4.000000,4.000000,43.000000,0.000000,0.699295,0.187500,0.671875,0.156250,0.906264,-0.437507,-0.031250,-76.563667,-76.563667,38.281834
1583521669.262179,87.000000,0.000000,4305.641113,4246.153809,4066.153809,4310.769043,4103.077148,1023.000000,4.000000,,,,0.000000,4.000000,4.000000,4.000000,4.000000,4.000000,,,,,,,,,,,,
1583521669.269877,88.000000,0.000000,4296.922852,4246.153809,4046.666748,4302.563965,4108.205078,450.000000,4.000000,,,,0.000000,4.000000,4.000000,4.000000,4.000000,4.000000,44.000000,0.000000,0.699295,0.187500,0.671875,0.156250,0.906264,-0.437507,-0.031250,-76.563667,-76.563667,38.281834
1583521669.277774,89.000000,0.000000,4290.769043,4250.256348,4049.743652,4306.666504,4096.922852,450.000000,4.000000,,,,0.000000,4.000000,4.000000,4.000000,4.000000,4.000000,,,,,,,,,,,,
1583521669.285671,90.000000,0.000000,4297.436035,4260.512695,4071.281982,4305.128418,4097.436035,450.000000,4.000000,,,,0.000000,4.000000,4.000000,4.000000,4.000000,4.000000,45.000000,0.000000,0.699295,0.187500,0.671875,0.156250,0.906264,-0.468757,-0.031250,-76.563667,-76.563667,38.281834
1583521669.293567,91.000000,0.000000,4309.230957,4264.615234,4072.820557,4292.307617,4107.179688,1023.000000,4.000000,,,,0.000000,4.000000,4.000000,4.000000,4.000000,4.000000,,,,,,,,,,,,
1583521669.301265,92.000000,0.000000,4306.153809,4260.512695,4060.512939,4301.538574,4105.128418,450.000000,4.000000,,,,0.000000,4.000000,4.000000,4.000000,4.000000,4.000000,46.000000,0.000000,0.699295,0.187500,0.671875,0.156250,0.906264,-0.468757,-0.031250,-76.563667,-76.563667,38.281834
1583521669.309162,93.000000,0.000000,4289.230957,4250.256348,4056.410156,4306.153809,4093.846191,450.000000,4.000000,,,,0.000000,4.000000,4.000000,4.000000,4.000000,4.000000,,,,,,,,,,,,
1583521669.317060,94.000000,0.000000,4292.307617,4254.358887,4073.333252,4301.025879,4097.436035,450.000000,4.000000,,,,0.000000,4.000000,4.000000,4.000000,4.000000,4.000000,47.000000,0.000000,0.699295,0.187500,0.671875,0.156250,0.906264,-0.437507,-0.031250,-76.563667,-76.563667,38.281834
1583521669.324957,95.000000,0.000000,4286.666504,4262.563965,4084.615479,4300.000000,4094.871826,1023.000000,4.000000,,,,0.000000,4.000000,4.000000,4.000000,4.000000,4.000000,,,,,,,,,,,,
1583521669.332654,96.000000,0.000000,4271.794922,4260.512695,4080.000000,4305.128418,4085.128174,450.000000,4.000000,,,,0.000000,4.000000,4.000000,4.000000,4.000000,4.000000,48.000000,0.000000,0.699295,0.187500,0.671875,0.156250,0.906264,-0.437507,-0.031250,-76.563667,-76.563667,38.281834
1583521669.340349,97.000000,0.000000,4304.615234,4264.615234,4072.820557,4303.589844,4108.205078,450.000000,4.000000,,,,0.000000,4.000000,4.000000,4.000000,4.000000,4.000000,,,,,,,,,,,,
1583521669.348046,98.000000,0.000000,4340.512695,4266.666504,4066.666748,4302.051270,4131.794922,450.000000,4.000000,,,,0.000000,4.000000,4.000000,4.000000,4.000000,4.000000,49.000000,0.000000,0.699295,0.187500,0.671875,0.156250,0.906264,-0.437507,-0.031250,-76.563667,-76.563667,38.281834
1583521669.355742,99.000000,0.000000,4336.922852,4258.461426,4051.794922,4290.256348,4128.717773,1023.000000,4.000000,,,,0.000000,4.000000,4.000000,4.000000,4.000000,4.000000,,,,,,,,,,,,
1583521669.363439,100.000000,0.000000,4336.922852,4250.256348,4039.487061,4275.897461,4122.563965,450.000000,4.000000,,,,0.000000,4.000000,4.000000,4.000000,4.000000,4.000000,50.000000,0.000000,0.699295,0.187500,0.671875,0.156250,0.906264,-0.437507,-0.031250,-76.563667,-76.563667,38.281834
1583521669.371135,101.000000,0.000000,4356.410156,4254.358887,4041.025635,4269.743652,4140.512695,450.000000,4.000000,,,,0.000000,4.000000,4.000000,4.000000,4.000000,4.000000,,,,,,,,,,,,
1583521669.378833,102.000000,0.000000,4340.000000,4254.358887,4048.205078,4268.717773,4143.077148,450.000000,4.000000,,,,0.000000,4.000000,4.000000,4.000000,4.000000,4.000000,51.000000,0.000000,0.699295,0.187500,0.671875,0.156250,0.906264,-0.437507,-0.031250,-76.563667,-76.563667,38.281834
1583521669.386729,103.000000,0.000000,4325.128418,4256.410156,4054.871826,4272.820313,4131.282227,1023.000000,4.000000,,,,0.000000,4.000000,4.000000,4.000000,4.000000,4.000000,,,,,,,,,,,,
1583521669.394427,104.000000,0.000000,4324.615234,4252.307617,4052.820557,4274.871582,4108.205078,450.000000,4.000000,,,,0.000000,4.000000,4.000000,4.000000,4.000000,4.000000,52.000000,0.000000,0.699295,0.187500,0.671875,0.156250,0.906264,-0.437507,-0.031250,-76.563667,-76.563667,38.281834
1583521669.402323,105.000000,0.000000,4311.282227,4254.358887,4048.205078,4264.615234,4095.384521,450.000000,4.000000,,,,0.000000,4.000000,4.000000,4.000000,4.000000,4.000000,,,,,,,,,,,,
1583521669.410021,106.000000,0.000000,4286.153809,4250.256348,4044.102539,4253.846191,4093.333252,450.000000,4.000000,,,,0.000000,4.000000,4.000000,4.000000,4.000000,4.000000,53.000000,0.000000,0.699295,0.187500,0.671875,0.156250,0.906264,-0.437507,-0.031250,-76.563667,-76.563667,38.281834
1583521669.417917,107.000000,0.000000,4296.922852,4252.307617,4051.281982,4258.461426,4104.102539,1023.000000,4.000000,,,,0.000000,4.000000,4.000000,4.000000,4.000000,4.000000,,,,,,,,,,,,
1583521669.425615,108.000000,0.000000,4323.589844,4258.461426,4057.435791,4249.743652,4110.769043,450.000000,4.000000,,,,0.000000,4.000000,4.000000,4.000000,4.000000,4.000000,54.000000,0.000000,0.699295,0.187500,0.671875,0.156250,0.906264,-0.437507,-0.031250,-76.563667,-76.563667,38.281834
1583521669.433512,109.000000,0.000000,4321.538574,4254.358887,4062.564209,4244.102539,4105.641113,450.000000,4.000000,,,,0.000000,4.000000,4.000000,4.000000,4.000000,4.000000,,,,,,,,,,,,
1583521669.441409,110.000000,0.000000,4302.051270,4242.051270,4058.461426,4246.153809,4095.384521,450.000000,4.000000,,,,0.000000,4.000000,4.000000,4.000000,4.000000,4.000000,55.000000,0.000000,0.699295,0.187500,0.671875,0.156250,0.906264,-0.437507,-0.031250,-76.563667,-76.563667,38.281834
1583521669.449305,111.000000,0.000000,4309.743652,4246.153809,4053.333252,4247.692383,4103.077148,1023.000000,4.000000,,,,0.000000,4.000000,4.000000,4.000000,4.000000,4.000000,,,,,,,,,,,,
1583521669.457002,112.000000,0.000000,4328.717773,4258.461426,4047.179443,4247.692383,4123.589844,450.000000,4.000000,,,,0.000000,4.000000,4.000000,4.000000,4.000000,4.000000,56.000000,0.000000,0.699295,0.187500,0.671875,0.156250,0.906264,-0.437507,-0.062501,-76.563667,-76.563667,38.281834
1583521669.464899,113.000000,0.000000,4318.974121,4254.358887,4041.025635,4246.666504,4120.512695,450.000000,4.000000,,,,0.000000,4.000000,4.000000,4.000000,4.000000,4.000000,,,,,,,,,,,,
1583521669.472597,114.000000,0.000000,4309.743652,4248.205078,4038.461426,4235.384766,4112.307617,450.000000,4.000000,,,,0.000000,4.000000,4.000000,4.000000,4.000000,4.000000,57.000000,0.000000,0.699295,0.187500,0.671875,0.156250,0.906264,-0.437507,-0.031250,-76.563667,-76.563667,38.281834
1583521669.480494,115.000000,0.000000,4311.282227,4244.102539,4042.564209,4231.794922,4110.256348,1023.000000,4.000000,,,,0.000000,4.000000,4.000000,4.000000,4.000000,4.000000,,,,,,,,,,,,
1583521669.488392,116.000000,0.000000,4311.794922,4242.051270,4043.076904,4227.179688,4104.102539,450.000000,4.000000,,,,0.000000,4.000000,4.000000,4.000000,4.000000,4.000000,58.000000,0.000000,0.699295,0.187500,0.671875,0.156250,0.906264,-0.437507,-0.062501,-76.563667,-76.563667,38.281834
1583521669.496289,117.000000,0.000000,4300.512695,4233.846191,4037.435791,4213.846191,4088.205078,450.000000,4.000000,,,,0.000000,4.000000,4.000000,4.000000,4.000000,4.000000,,,,,,,,,,,,
1583521669.504187,118.000000,0.000000,4297.948730,4240.000000,4042.051270,4216.410156,4092.307617,450.000000,4.000000,,,,0.000000,4.000000,4.000000,4.000000,4.000000,4.000000,59.000000,0.000000,0.699295,0.187500,0.671875,0.156250,0.906264,-0.468757,-0.031250,-76.563667,-76.563667,38.281834
1583521669.512084,119.000000,0.000000,4289.743652,4248.205078,4045.128174,4211.794922,4086.666748,1023.000000,4.000000,,,,0.000000,4.000000,4.000000,4.000000,4.000000,4.000000,,,,,,,,,,,,
1583521669.519782,120.000000,0.000000,4284.102539,4248.205078,4041.538574,4197.436035,4071.794922,450.000000,4.000000,,,,0.000000,4.000000,4.000000,4.000000,4.000000,4.000000,60.000000,0.000000,0.699295,0.187500,0.671875,0.156250,0.906264,-0.437507,-0.062501,-76.563667,-76.563667,38.281834
1583521669.527679,121.000000,0.000000,4289.230957,4250.256348,4047.179443,4198.461426,4074.871826,450.000000,4.000000,,,,0.000000,4.000000,4.000000,4.000000,4.000000,4.000000,,,,,,,,,,,,
1583521669.535375,122.000000,0.000000,4305.641113,4260.512695,4062.051270,4203.589844,4090.769287,450.000000,4.000000,,,,0.000000,4.000000,4.000000,4.000000,4.000000,4.000000,61.000000,0.000000,0.699295,0.187500,0.671875,0.156250,0.875013,-0.468757,-0.031250,-76.563667,-76.563667,38.281834
1583521669.543071,123.000000,0.000000,4307.179688,4254.358887,4055.897461,4185.128418,4093.333252,1023.000000,4.000000,,,,0.000000,4.000000,4.000000,4.000000,4.000000,4.000000,,,,,,,,,,,,
1583521669.550768,124.000000,0.000000,4303.077148,4252.307617,4050.769287,4175.384766,4096.410156,450.000000,4.000000,,,,0.000000,4.000000,4.000000,4.000000,4.000000,4.000000,62.000000,0.000000,0.699295,0.187500,0.671875,0.156250,0.875013,-0.468757,-0.031250,-76.563667,-76.563667,38.281834
1583521669.558464,125.000000,0.000000,4302.563965,4258.461426,4063.589844,4182.563965,4093.846191,450.000000,4.000000,,,,0.000000,4.000000,4.000000,4.000000,4.000000,4.000000,,,,,,,,,,,,
1583521669.566160,126.000000,0.000000,4300.000000,4252.307617,4074.871826,4188.205078,4077.948730,450.000000,4.000000,,,,0.000000,4.000000,4.000000,4.000000,4.000000,4.000000,63.000000,0.000000,0.699295,0.187500,0.671875,0.156250,0.906264,-0.468757,-0.031250,-76.563667,-76.563667,38.281834
1583521669.573856,127.000000,0.000000,4293.333496,4242.051270,4065.128174,4183.077148,4075.384521,243.000000,4.000000,,,,0.000000,4.000000,4.000000,4.000000,4.000000,4.000000,,,,,,,,,,,,
1583521669.581554,0.000000,0.000000,4284.615234,4242.051270,4062.564209,4183.077148,4089.230713,450.000000,4.000000,,,,0.000000,4.000000,4.000000,4.000000,4.000000,4.000000,0.000000,0.000000,0.699295,0.187500,0.671875,0.156250,0.906264,-0.468757,-0.062501,-76.563667,-76.563667,38.281834
1583521669.589450,1.000000,0.000000,4279.487305,4248.205078,4066.666748,4170.769043,4089.230713,450.000000,4.000000,,,,0.000000,4.000000,4.000000,4.000000,4.000000,4.000000,,,,,,,,,,,,
1583521669.597148,2.000000,0.000000,4269.230957,4242.051270,4062.051270,4150.256348,4072.307617,1023.000000,4.000000,,,,0.000000,4.000000,4.000000,4.000000,4.000000,4.000000,1.000000,0.000000,0.699295,0.187500,0.671875,0.156250,0.906264,-0.468757,-0.031250,-76.563667,-76.563667,38.281834
1583521669.605044,3.000000,0.000000,4264.615234,4246.153809,4060.000000,4145.128418,4067.692383,450.000000,4.000000,,,,0.000000,4.000000,4.000000,4.000000,4.000000,4.000000,,,,,,,,,,,,
1583521669.612742,4.000000,0.000000,4266.666504,4246.153809,4066.153809,4154.871582,4079.487061,1023.000000,4.000000,,,,0.000000,4.000000,4.000000,4.000000,4.000000,4.000000,2.000000,0.000000,0.699295,0.187500,0.671875,0.156250,0.906264,-0.468757,-0.031250,-76.563667,-76.563667,38.281834
1583521669.620638,5.000000,0.000000,4275.384766,4246.153809,4070.256348,4155.897461,4109.230957,450.000000,4.000000,,,,0.000000,4.000000,4.000000,4.000000,4.000000,4.000000,,,,,,,,,,,,
1583521669.628336,6.000000,0.000000,4270.256348,4246.153809,4072.820557,4150.769043,4118.461426,1023.000000,4.000000,,,,0.000000,4.000000,4.000000,4.000000,4.000000,4.000000,3.000000,0.000000,0.699295,0.187500,0.671875,0.156250,0.906264,-0.437507,-0.031250,-76.563667,-76.563667,38.281834
1583521669.636232,7.000000,0.000000,4269.230957,4254.358887,4082.564209,4151.282227,4109.743652,450.000000,4.000000,,,,0.000000,4.000000,4.000000,4.000000,4.000000,4.000000,,,,,,,,,,,,
1583521669.643929,8.000000,0.000000,4267.179688,4248.205078,4080.000000,4146.666504,4096.922852,450.000000,4.000000,,,,0.000000,4.000000,4.000000,4.000000,4.000000,4.000000,4.000000,0.000000,0.699295,0.187500,0.671875,0.156250,0.906264,-0.468757,-0.031250,-76.563667,-76.563667,38.281834
1583521669.651825,9.000000,0.000000,4265.128418,4248.205078,4073.333252,4143.589844,4097.948730,1023.000000,4.000000,,,,0.000000,4.000000,4.000000,4.000000,4.000000,4.000000,,,,,,,,,,,,
1583521669.659523,10.000000,0.000000,4263.077148,4248.205078,4065.641113,4135.897461,4096.410156,450.000000,4.000000,,,,0.000000,4.000000,4.000000,4.000000,4.000000,4.000000,5.000000,0.000000,0.699295,0.187500,0.671875,0.156250,0.906264,-0.437507,-0.031250,-76.563667,-76.563667,38.281834
1583521669.667419,11.000000,0.000000,4268.205078,4242.051270,4058.461426,4132.820313,4086.666748,1023.000000,4.000000,,,,0.000000,4.000000,4.000000,4.000000,4.000000,4.000000,,,,,,,,,,,,
1583521669.675116,12.000000,0.000000,4265.128418,4235.897461,4052.820557,4134.358887,4076.923096,450.000000,4.000000,,,,0.000000,4.000000,4.000000,4.000000,4.000000,4.000000,6.000000,0.000000,0.699295,0.187500,0.671875,0.156250,0.875013,-0.468757,-0.031250,-76.563667,-76.563667,38.281834
1583521669.683012,13.000000,0.000000,4255.384766,4240.000000,4057.948730,4134.871582,4082.051270,450.000000,4.000000,,,,0.000000,4.000000,4.000000,4.000000,4.000000,4.000000,,,,,,,,,,,,
1583521669.690710,14.000000,0.000000,4254.871582,4250.256348,4058.461426,4125.641113,4091.794922,450.000000,4.000000,,,,0.000000,4.000000,4.000000,4.000000,4.000000,4.000000,7.000000,0.000000,0.699295,0.187500,0.671875,0.156250,0.906264,-0.468757,-0.062501,-76.563667,-76.563667,38.281834
1583521669.698607,15.000000,0.000000,4253.846191,4250.256348,4056.923096,4124.102539,4084.102539,1023.000000,4.000000,,,,0.000000,4.000000,4.000000,4.000000,4.000000,4.000000,,,,,,,,,,,,
1583521669.706505,16.000000,0.000000,4251.282227,4246.153809,4054.871826,4127.692383,4081.538574,0.000000,4.000000,,,,0.000000,4.000000,4.000000,4.000000,4.000000,4.000000,8.000000,0.000000,0.699295,0.187500,0.671875,0.156250,0.875013,-0.468757,-0.031250,-76.563667,-76.563667,38.281834
1583521669.714402,17.000000,0.000000,4250.769043,4246.153809,4051.281982,4126.666504,4092.307617,0.000000,4.000000,,,,0.000000,4.000000,4.000000,4.000000,4.000000,4.000000,,,,,,,,,,,,
1583521669.722200,18.000000,0.000000,4258.461426,4254.358887,4052.307617,4123.077148,4107.179688,0.000000,4.000000,,,,0.000000,4.000000,4.000000,4.000000,4.000000,4.000000,9.000000,0.000000,0.699295,0.187500,0.671875,0.156250,0.875013,-0.437507,-0.062501,-76.563667,-76.563667,38.281834
1583521669.730098,19.000000,0.000000,4253.333496,4252.307617,4058.461426,4128.717773,4108.205078,0.000000,4.000000,,,,0.000000,4.000000,4.000000,4.000000,4.000000,4.000000,,,,,,,,,,,,
1583521669.737995,20.000000,0.000000,4249.743652,4252.307617,4065.641113,4142.051270,4112.307617,0.000000,4.000000,,,,0.000000,4.000000,4.000000,4.000000,4.000000,4.000000,10.000000,0.000000,0.699295,0.187500,0.671875,0.156250,0.875013,-0.437507,-0.031250,-76.563667,-76.563667,38.281834
1583521669.745692,21.000000,0.000000,4250.769043,4256.410156,4066.153809,4138.461426,4112.820313,0.000000,4.000000,,,,0.000000,4.000000,4.000000,4.000000,4.000000,4.000000,,,,,,,,,,,,
1583521669.753389,22.000000,0.000000,4250.769043,4262.563965,4056.923096,4115.384766,4112.820313,0.000000,4.000000,,,,0.000000,4.000000,4.000000,4.000000,4.000000,4.000000,11.000000,0.000000,0.699295,0.187500,0.671875,0.156250,0.906264,-0.437507,-0.062501,-76.563667,-76.563667,38.281834
1583521669.761085,23.000000,0.000000,4236.922852,4250.256348,4042.564209,4103.589844,4102.051270,0.000000,4.000000,,,,0.000000,4.000000,4.000000,4.000000,4.000000,4.000000,,,,,,,,,,,,
1583521669.768782,24.000000,0.000000,4236.410156,4244.102539,4041.025635,4114.358887,4094.358887,0.000000,4.000000,,,,0.000000,4.000000,4.000000,4.000000,4.000000,4.000000,12.000000,0.000000,0.699295,0.187500,0.671875,0.156250,0.906264,-0.468757,-0.031250,-76.563667,-76.563667,38.281834
1583521669.776679,25.000000,0.000000,4250.256348,4256.410156,4042.564209,4116.922852,4094.871826,0.000000,4.000000,,,,0.000000,4.000000,4.000000,4.000000,4.000000,4.000000,,,,,,,,,,,,
1583521669.784376,26.000000,0.000000,4254.871582,4264.615234,4036.923096,4109.743652,4104.102539,0.000000,4.000000,,,,0.000000,4.000000,4.000000,4.000000,4.000000,4.000000,13.000000,0.000000,0.699295,0.187500,0.671875,0.156250,0.875013,-0.468757,-0.031250,-76.563667,-76.563667,38.281834
1583521669.792273,27.000000,0.000000,4237.436035,4252.307617,4030.256348,4102.563965,4104.615234,0.000000,4.000000,,,,0.000000,4.000000,4.000000,4.000000,4.000000,4.000000,,,,,,,,,,,,
1583521669.799970,28.000000,0.000000,4234.871582,4240.000000,4037.435791,4101.538574,4101.538574,0.000000,4.000000,,,,0.000000,4.000000,4.000000,4.000000,4.000000,4.000000,14.000000,0.000000,0.699295,0.187500,0.671875,0.156250,0.906264,-0.437507,-0.031250,-76.563667,-76.563667,38.281834
1583521669.807867,29.000000,0.000000,4241.538574,4244.102539,4042.051270,4101.025879,4100.512695,0.000000,4.000000,,,,0.000000,4.000000,4.000000,4.000000,4.000000,4.000000,,,,,,,,,,,,
1583521669.815564,30.000000,0.000000,4240.512695,4248.205078,4045.641113,4106.153809,4100.512695,0.000000,4.000000,,,,0.000000,4.000000,4.000000,4.000000,4.000000,4.000000,15.000000,0.000000,0.699295,0.187500,0.671875,0.156250,0.906264,-0.437507,-0.031250,-76.563667,-76.563667,38.281834
1583521669.823461,31.000000,0.000000,4242.051270,4252.307617,4049.230713,4101.538574,4104.615234,0.000000,4.000000,,,,0.000000,4.000000,4.000000,4.000000,4.000000,4.000000,,,,,,,,,,,,
1583521669.831159,32.000000,0.000000,4243.589844,4250.256348,4050.256348,4102.563965,4108.717773,0.000000,4.000000,,,,0.000000,4.000000,4.000000,4.000000,4.000000,4.000000,16.000000,0.000000,0.699295,0.187500,0.671875,0.156250,0.906264,-0.468757,-0.031250,-76.563667,-76.563667,38.281834
1583521669.839056,33.000000,0.000000,4240.512695,4252.307617,4050.256348,4108.205078,4109.743652,0.000000,4.000000,,,,0.000000,4.000000,4.000000,4.000000,4.000000,4.000000,,,,,,,,,,,,
1583521669.846953,34.000000,0.000000,4224.615234,4252.307617,4055.897461,4108.717773,4099.487305,0.000000,4.000000,,,,0.000000,4.000000,4.000000,4.000000,4.000000,4.000000,17.000000,0.000000,0.699295,0.187500,0.671875,0.156250,0.906264,-0.468757,-0.031250,-76.563667,-76.563667,38.281834
1583521669.854850,35.000000,0.000000,4228.717773,4252.307617,4056.923096,4094.358887,4107.179688,0.000000,4.000000,,,,0.000000,4.000000,4.000000,4.000000,4.000000,4.000000,,,,,,,,,,,,
1583521669.862547,36.000000,0.000000,4235.384766,4248.205078,4046.153809,4077.948730,4110.769043,0.000000,4.000000,,,,0.000000,4.000000,4.000000,4.000000,4.000000,4.000000,18.000000,0.000000,0.699295,0.187500,0.671875,0.156250,0.906264,-0.437507,-0.031250,-76.563667,-76.563667,38.281834
1583521669.870443,37.000000,0.000000,4228.717773,4254.358887,4046.153809,4074.358887,4095.897461,0.000000,4.000000,,,,0.000000,4.000000,4.000000,4.000000,4.000000,4.000000,,,,,,,,,,,,
1583521669.878140,38.000000,0.000000,4206.666504,4256.410156,4049.230713,4073.846191,4073.333252,0.000000,4.000000,,,,0.000000,4.000000,4.000000,4.000000,4.000000,4.000000,19.000000,0.000000,0.699295,0.187500,0.671875,0.156250,0.906264,-0.468757,-0.031250,-76.563667,-76.563667,38.281834
1583521669.886036,39.000000,0.000000,4200.512695,4258.461426,4050.256348,4075.384521,4078.461426,0.000000,4.000000,,,,0.000000,4.000000,4.000000,4.000000,4.000000,4.000000,,,,,,,,,,,,
1583521669.893733,40.000000,0.000000,4200.000000,4254.358887,4046.666748,4073.846191,4085.128174,0.000000,4.000000,,,,0.000000,4.000000,4.000000,4.000000,4.000000,4.000000,20.000000,0.000000,0.699295,0.187500,0.671875,0.156250,0.906264,-0.437507,-0.031250,-76.563667,-76.563667,38.281834
1583521669.901629,41.000000,0.000000,4204.615234,4262.563965,4045.641113,4068.205078,4087.692383,0.000000,4.000000,,,,0.000000,4.000000,4.000000,4.000000,4.000000,4.000000,,,,,,,,,,,,
1583521669.909327,42.000000,0.000000,4209.230957,4266.666504,4037.435791,4058.461426,4086.666748,0.000000,4.000000,,,,0.000000,4.000000,4.000000,4.000000,4.000000,4.000000,21.000000,0.000000,0.699295,0.187500,0.671875,0.156250,0.906264,-0.437507,-0.031250,-76.563667,-76.563667,38.281834
1583521669.917224,43.000000,0.000000,4201.025879,4256.410156,4031.794922,4061.538574,4072.820557,0.000000,4.000000,,,,0.000000,4.000000,4.000000,4.000000,4.000000,4.000000,,,,,,,,,,,,
1583521669.924922,44.000000,0.000000,4192.820313,4256.410156,4030.769287,4060.512939,4060.512939,0.000000,4.000000,,,,0.000000,4.000000,4.000000,4.000000,4.000000,4.000000,22.000000,0.000000,0.699295,0.187500,0.671875,0.156250,0.906264,-0.437507,-0.062501,-76.563667,-76.563667,38.281834
1583521669.932819,45.000000,0.000000,4191.282227,4266.666504,4036.410156,4052.820557,4065.641113,0.000000,4.000000,,,,0.000000,4.000000,4.000000,4.000000,4.000000,4.000000,,,,,,,,,,,,
1583521669.940517,46.000000,0.000000,4185.641113,4268.717773,4040.512939,4046.666748,4073.333252,0.000000,4.000000,,,,0.000000,4.000000,4.000000,4.000000,4.000000,4.000000,23.000000,0.000000,0.699295,0.187500,0.671875,0.156250,0.906264,-0.437507,-0.031250,-76.563667,-76.563667,38.281834
1583521669.948413,47.000000,0.000000,4179.487305,4260.512695,4047.692383,4050.769287,4075.384521,0.000000,4.000000,,,,0.000000,4.000000,4.000000,4.000000,4.000000,4.000000,,,,,,,,,,,,
1583521669.956111,48.000000,0.000000,4174.358887,4260.512695,4047.692383,4049.230713,4070.256348,0.000000,4.000000,,,,0.000000,4.000000,4.000000,4.000000,4.000000,4.000000,24.000000,0.000000,0.699295,0.187500,0.671875,0.156250,0.906264,-0.437507,-0.031250,-76.563667,-76.563667,38.281834
1583521669.964008,49.000000,0.000000,4167.692383,4256.410156,4041.025635,4031.794922,4052.307617,0.000000,4.000000,,,,0.000000,4.000000,4.000000,4.000000,4.000000,4.000000,,,,,,,,,,,,
1583521669.971705,50.000000,0.000000,4181.025879,4256.410156,4043.589844,4012.307617,4060.000000,0.000000,4.000000,,,,0.000000,4.000000,4.000000,4.000000,4.000000,4.000000,25.000000,0.000000,0.699295,0.187500,0.671875,0.156250,0.906264,-0.437507,-0.031250,-76.563667,-76.563667,38.281834
1583521669.979602,51.000000,0.000000,4198.461426,4264.615234,4055.897461,4024.615479,4083.076904,0.000000,4.000000,,,,0.000000,4.000000,4.000000,4.000000,4.000000,4.000000,,,,,,,,,,,,
1583521669.987299,52.000000,0.000000,4212.820313,4270.769043,4055.384521,4043.076904,4095.384521,0.000000,4.000000,,,,0.000000,4.000000,4.000000,4.000000,4.000000,4.000000,26.000000,0.000000,0.699295,0.187500,0.671875,0.156250,0.906264,-0.437507,-0.031250,-76.563667,-76.563667,38.281834
1583521669.995196,53.000000,0.000000,4207.179688,4262.563965,4037.435791,4033.846191,4081.538574,0.000000,4.000000,,,,0.000000,4.000000,4.000000,4.000000,4.000000,4.000000,,,,,,,,,,,,
1583521670.002893,54.000000,0.000000,4195.897461,4260.512695,4030.769287,4022.051270,4076.410156,0.000000,4.000000,,,,0.000000,4.000000,4.000000,4.000000,4.000000,4.000000,27.000000,0.000000,0.699295,0.187500,0.671875,0.156250,0.906264,-0.437507,-0.031250,-76.563667,-76.563667,38.281834
1583521670.010790,55.000000,0.000000,4186.153809,4258.461426,4030.256348,4018.974365,4074.871826,0.000000,4.000000,,,,0.000000,4.000000,4.000000,4.000000,4.000000,4.000000,,,,,,,,,,,,
1583521670.018487,56.000000,0.000000,4194.358887,4258.461426,4033.333252,4017.948730,4073.846191,0.000000,4.000000,,,,0.000000,4.000000,4.000000,4.000000,4.000000,4.000000,28.000000,0.000000,0.699295,0.187500,0.671875,0.156250,0.906264,-0.437507,-0.062501,-76.563667,-76.563667,38.281834
1583521670.026383,57.000000,0.000000,4213.846191,4268.717773,4044.615479,4013.333252,4082.564209,0.000000,4.000000,,,,0.000000,4.000000,4.000000,4.000000,4.000000,4.000000,,,,,,,,,,,,
1583521670.034082,58.000000,0.000000,4238.974121,4285.128418,4061.538574,4022.564209,4107.179688,0.000000,4.000000,,,,0.000000,4.000000,4.000000,4.000000,4.000000,4.000000,29.000000,0.000000,0.699295,0.187500,0.671875,0.156250,0.906264,-0.468757,-0.031250,-76.563667,-76.563667,38.281834
1583521670.041979,59.000000,0.000000,4240.512695,4281.025879,4060.000000,4022.564209,4114.871582,0.000000,4.000000,,,,0.000000,4.000000,4.000000,4.000000,4.000000,4.000000,,,,,,,,,,,,
1583521670.049876,60.000000,0.000000,4219.487305,4262.563965,4057.435791,4009.230713,4101.538574,0.000000,4.000000,,,,0.000000,4.000000,4.000000,4.000000,4.000000,4.000000,30.000000,0.000000,0.699295,0.187500,0.671875,0.156250,0.875013,-0.437507,-0.062501,-76.563667,-76.563667,38.281834
1583521670.057772,61.000000,0.000000,4213.333496,4266.666504,4063.589844,3997.435791,4101.025879,0.000000,4.000000,,,,0.000000,4.000000,4.000000,4.000000,4.000000,4.000000,,,,,,,,,,,,
1583521670.065469,62.000000,0.000000,4217.948730,4278.974121,4065.128174,3997.948730,4107.179688,0.000000,4.000000,,,,0.000000,4.000000,4.000000,4.000000,4.000000,4.000000,31.000000,0.000000,0.699295,0.187500,0.671875,0.156250,0.906264,-0.437507,-0.031250,-76.563667,-76.563667,38.281834
1583521670.073365,63.000000,0.000000,4226.153809,4278.974121,4063.076904,3993.333252,4109.743652,0.000000,4.000000,,,,0.000000,4.000000,4.000000,4.000000,4.000000,4.000000,,,,,,,,,,,,
1583521670.081062,64.000000,0.000000,4232.307617,4270.769043,4064.615479,3989.743652,4107.179688,450.000000,4.000000,,,,0.000000,4.000000,4.000000,4.000000,4.000000,4.000000,32.000000,0.000000,0.699295,0.187500,0.671875,0.156250,0.906264,-0.437507,-0.062501,-76.563667,-76.563667,38.281834
1583521670.088958,65.000000,0.000000,4234.358887,4274.871582,4061.025635,3993.846191,4111.794922,450.000000,4.000000,,,,0.000000,4.000000,4.000000,4.000000,4.000000,4.000000,,,,,,,,,,,,
1583521670.096656,66.000000,0.000000,4232.820313,4276.922852,4060.000000,4001.025635,4119.487305,1023.000000,4.000000,,,,0.000000,4.000000,4.000000,4.000000,4.000000,4.000000,33.000000,0.000000,0.699295,0.187500,0.671875,0.156250,0.906264,-0.437507,-0.031250,-76.563667,-76.563667,38.281834
1583521670.104553,67.000000,0.000000,4249.230957,4281.025879,4067.692383,4003.076904,4123.077148,450.000000,4.000000,,,,0.000000,4.000000,4.000000,4.000000,4.000000,4.000000,,,,,,,,,,,,
1583521670.112251,68.000000,0.000000,4261.538574,4281.025879,4064.102539,3999.487061,4118.974121,1023.000000,4.000000,,,,0.000000,4.000000,4.000000,4.000000,4.000000,4.000000,34.000000,0.000000,0.699295,0.187500,0.671875,0.156250,0.906264,-0.437507,-0.031250,-76.563667,-76.563667,38.281834
1583521670.120148,69.000000,0.000000,4256.410156,4283.077148,4060.512939,3994.871826,4126.666504,450.000000,4.000000,,,,0.000000,4.000000,4.000000,4.000000,4.000000,4.000000,,,,,,,,,,,,
1583521670.127846,70.000000,0.000000,4226.153809,4272.820313,4066.666748,3987.179443,4115.384766,1023.000000,4.000000,,,,0.000000,4.000000,4.000000,4.000000,4.000000,4.000000,35.000000,0.000000,0.699295,0.187500,0.671875,0.156250,0.906264,-0.468757,-0.031250,-76.563667,-76.563667,38.281834
1583521670.135743,71.000000,0.000000,4217.436035,4268.717773,4067.179443,3987.692383,4116.410156,450.000000,4.000000,,,,0.000000,4.000000,4.000000,4.000000,4.000000,4.000000,,,,,,,,,,,,
1583521670.143441,72.000000,0.000000,4240.000000,4274.871582,4061.025635,3991.281982,4143.589844,450.000000,4.000000,,,,0.000000,4.000000,4.000000,4.000000,4.000000,4.000000,36.000000,0.000000,0.699295,0.187500,0.671875,0.156250,0.906264,-0.437507,-0.062501,-76.563667,-76.563667,38.281834
1583521670.151337,73.000000,0.000000,4262.563965,4274.871582,4070.769287,3990.256348,4168.717773,1023.000000,4.000000,,,,0.000000,4.000000,4.000000,4.000000,4.000000,4.000000,,,,,,,,,,,,
1583521670.159035,74.000000,0.000000,4246.153809,4260.512695,4069.230713,3980.000000,4170.256348,450.000000,4.000000,,,,0.000000,4.000000,4.000000,4.000000,4.000000,4.000000,37.000000,0.000000,0.699295,0.187500,0.671875,0.156250,0.906264,-0.437507,-0.031250,-76.563667,-76.563667,38.281834
1583521670.166932,75.000000,0.000000,4218.974121,4250.256348,4061.025635,3980.000000,4157.948730,1023.000000,4.000000,,,,0.000000,4.000000,4.000000,4.000000,4.000000,4.000000,,,,,,,,,,,,
1583521670.174629,76.000000,0.000000,4224.102539,4258.461426,4068.205078,3981.538574,4150.256348,450.000000,4.000000,,,,0.000000,4.000000,4.000000,4.000000,4.000000,4.000000,38.000000,0.000000,0.699295,0.187500,0.671875,0.156250,0.906264,-0.468757,-0.062501,-76.563667,-76.563667,38.281834
1583521670.182526,77.000000,0.000000,4237.948730,4262.563965,4078.461426,3973.846191,4162.051270,450.000000,4.000000,,,,0.000000,4.000000,4.000000,4.000000,4.000000,4.000000,,,,,,,,,,,,
1583521670.190223,78.000000,0.000000,4228.717773,4256.410156,4064.615479,3967.692383,4170.769043,450.000000,4.000000,,,,0.000000,4.000000,4.000000,4.000000,4.000000,4.000000,39.000000,0.000000,0.699295,0.187500,0.671875,0.156250,0.906264,-0.468757,-0.062501,-76.563667,-76.563667,38.281834
1583521670.198120,79.000000,0.000000,4210.769043,4248.205078,4054.358887,3975.897461,4156.922852,1023.000000,4.000000,,,,0.000000,4.000000,4.000000,4.000000,4.000000,4.000000,,,,,,,,,,,,
1583521670.205817,80.000000,0.000000,4214.871582,4256.410156,4057.948730,3974.871826,4159.487305,450.000000,4.000000,,,,0.000000,4.000000,4.000000,4.000000,4.000000,4.000000,40.000000,0.000000,0.699295,0.187500,0.671875,0.156250,0.906264,-0.468757,-0.031250,-76.563667,-76.563667,38.281834
1583521670.213713,81.000000,0.000000,4215.897461,4260.512695,4052.820557,3958.974365,4162.051270,450.000000,4.000000,,,,0.000000,4.000000,4.000000,4.000000,4.000000,4.000000,,,,,,,,,,,,
1583521670.221411,82.000000,0.000000,4212.307617,4256.410156,4044.615479,3956.923096,4162.051270,450.000000,4.000000,,,,0.000000,4.000000,4.000000,4.000000,4.000000,4.000000,41.000000,0.000000,0.699295,0.187500,0.671875,0.156250,0.906264,-0.468757,-0.062501,-76.563667,-76.563667,38.281834
1583521670.229307,83.000000,0.000000,4202.051270,4252.307617,4044.102539,3964.102539,4163.077148,1023.000000,4.000000,,,,0.000000,4.000000,4.000000,4.000000,4.000000,4.000000,,,,,,,,,,,,
1583521670.237005,84.000000,0.000000,4193.846191,4262.563965,4049.743652,3951.794922,4160.000000,450.000000,4.000000,,,,0.000000,4.000000,4.000000,4.000000,4.000000,4.000000,42.000000,0.000000,0.699295,0.187500,0.671875,0.156250,0.906264,-0.468757,-0.062501,-76.563667,-76.563667,38.281834
1583521670.244902,85.000000,0.000000,4189.230957,4260.512695,4057.435791,3941.025635,4149.230957,450.000000,4.000000,,,,0.000000,4.000000,4.000000,4.000000,4.000000,4.000000,,,,,,,,,,,,
1583521670.252800,86.000000,0.000000,4193.846191,4256.410156,4069.743652,3947.692383,4158.461426,450.000000,4.000000,,,,0.000000,4.000000,4.000000,4.000000,4.000000,4.000000,43.000000,0.000000,0.699295,0.187500,0.671875,0.156250,0.906264,-0.468757,-0.031250,-76.563667,-76.563667,38.281834
1583521670.260696,87.000000,0.000000,4190.769043,4250.256348,4068.718018,3947.692383,4164.102539,1023.000000,4.000000,,,,0.000000,4.000000,4.000000,4.000000,4.000000,4.000000,,,,,,,,,,,,
1583521670.268393,88.000000,0.000000,4194.358887,4252.307617,4061.025635,3950.769287,4168.205078,450.000000,4.000000,,,,0.000000,4.000000,4.000000,4.000000,4.000000,4.000000,44.000000,0.000000,0.699295,0.187500,0.671875,0.156250,0.906264,-0.468757,-0.031250,-76.563667,-76.563667,38.281834
1583521670.276289,89.000000,0.000000,4203.077148,4250.256348,4055.384521,3952.820557,4179.487305,450.000000,4.000000,,,,0.000000,4.000000,4.000000,4.000000,4.000000,4.000000,,,,,,,,,,,,
1583521670.283986,90.000000,0.000000,4205.128418,4256.410156,4058.974365,3955.897461,4190.256348,450.000000,4.000000,,,,0.000000,4.000000,4.000000,4.000000,4.000000,4.000000,45.000000,0.000000,0.699295,0.187500,0.671875,0.156250,0.906264,-0.437507,-0.031250,-76.563667,-76.563667,38.281834
1583521670.291682,91.000000,0.000000,4201.025879,4268.717773,4063.076904,3958.974365,4196.922852,1023.000000,4.000000,,,,0.000000,4.000000,4.000000,4.000000,4.000000,4.000000,,,,,,,,,,,,
1583521670.299379,92.000000,0.000000,4196.410156,4268.717773,4062.051270,3955.384521,4199.487305,450.000000,4.000000,,,,0.000000,4.000000,4.000000,4.000000,4.000000,4.000000,46.000000,0.000000,0.699295,0.187500,0.671875,0.156250,0.906264,-0.437507,-0.031250,-76.563667,-76.563667,38.281834
1583521670.307075,93.000000,0.000000,4191.794922,4260.512695,4057.435791,3937.435791,4195.897461,450.000000,4.000000,,,,0.000000,4.000000,4.000000,4.000000,4.000000,4.000000,,,,,,,,,,,,
1583521670.314773,94.000000,0.000000,4183.077148,4262.563965,4064.615479,3934.358887,4186.153809,450.000000,4.000000,,,,0.000000,4.000000,4.000000,4.000000,4.000000,4.000000,47.000000,0.000000,0.699295,0.187500,0.671875,0.156250,0.875013,-0.468757,-0.031250,-76.563667,-76.563667,38.281834
1583521670.322670,95.000000,0.000000,4183.077148,4270.769043,4068.718018,3944.102539,4186.153809,1023.000000,4.000000,,,,0.000000,4.000000,4.000000,4.000000,4.000000,4.000000,,,,,,,,,,,,
1583521670.330368,96.000000,0.000000,4186.153809,4262.563965,4065.641113,3950.769287,4187.692383,450.000000,4.000000,,,,0.000000,4.000000,4.000000,4.000000,4.000000,4.000000,48.000000,0.000000,0.699295,0.187500,0.671875,0.156250,0.906264,-0.437507,-0.031250,-76.563667,-76.563667,38.281834
1583521670.338264,97.000000,0.000000,4186.153809,4262.563965,4068.205078,3945.641113,4190.769043,450.000000,4.000000,,,,0.000000,4.000000,4.000000,4.000000,4.000000,4.000000,,,,,,,,,,,,
1583521670.345962,98.000000,0.000000,4177.948730,4260.512695,4071.281982,3942.051270,4186.666504,450.000000,4.000000,,,,0.000000,4.000000,4.000000,4.000000,4.000000,4.000000,49.000000,0.000000,0.699295,0.187500,0.671875,0.156250,0.875013,-0.468757,-0.031250,-76.563667,-76.563667,38.281834
1583521670.353859,99.000000,0.000000,4188.205078,4258.461426,4069.743652,3942.564209,4187.692383,1023.000000,4.000000,,,,0.000000,4.000000,4.000000,4.000000,4.000000,4.000000,,,,,,,,,,,,
1583521670.361555,100.000000,0.000000,4199.487305,4254.358887,4064.615479,3932.307617,4186.153809,450.000000,4.000000,,,,0.000000,4.000000,4.000000,4.000000,4.000000,4.000000,50.000000,0.000000,0.699295,0.187500,0.671875,0.156250,0.906264,-0.468757,-0.031250,-76.563667,-76.563667,38.281834
1583521670.369251,101.000000,0.000000,4206.153809,4260.512695,4066.153809,3926.153809,4189.230957,450.000000,4.000000,,,,0.000000,4.000000,4.000000,4.000000,4.000000,4.000000,,,,,,,,,,,,
1583521670.376949,102.000000,0.000000,4205.128418,4260.512695,4072.307617,3932.307617,4185.641113,450.000000,4.000000,,,,0.000000,4.000000,4.000000,4.000000,4.000000,4.000000,51.000000,0.000000,0.699295,0.187500,0.671875,0.156250,0.906264,-0.468757,-0.031250,-76.563667,-76.563667,38.281834
1583521670.384845,103.000000,0.000000,4204.102539,4258.461426,4070.769287,3937.435791,4187.179688,1023.000000,4.000000,,,,0.000000,4.000000,4.000000,4.000000,4.000000,4.000000,,,,,,,,,,,,
1583521670.392543,104.000000,0.000000,4199.487305,4250.256348,4051.794922,3926.153809,4190.256348,450.000000,4.000000,,,,0.000000,4.000000,4.000000,4.000000,4.000000,4.000000,52.000000,0.000000,0.699295,0.187500,0.671875,0.156250,0.906264,-0.468757,-0.062501,-76.563667,-76.563667,38.281834
1583521670.400439,105.000000,0.000000,4202.051270,4248.205078,4048.205078,3922.564209,4196.410156,450.000000,4.000000,,,,0.000000,4.000000,4.000000,4.000000,4.000000,4.000000,,,,,,,,,,,,
1583521670.408137,106.000000,0.000000,4202.563965,4250.256348,4058.461426,3925.128174,4199.487305,450.000000,4.000000,,,,0.000000,4.000000,4.000000,4.000000,4.000000,4.000000,53.000000,0.000000,0.699295,0.187500,0.671875,0.156250,0.906264,-0.437507,-0.062501,-76.563667,-76.563667,38.281834
1583521670.416033,107.000000,0.000000,4203.589844,4254.358887,4063.076904,3940.512939,4203.589844,1023.000000,4.000000,,,,0.000000,4.000000,4.000000,4.000000,4.000000,4.000000,,,,,,,,,,,,
1583521670.423731,108.000000,0.000000,4213.333496,4262.563965,4060.512939,3947.179443,4212.307617,450.000000,4.000000,,,,0.000000,4.000000,4.000000,4.000000,4.000000,4.000000,54.000000,0.000000,0.699295,0.187500,0.671875,0.156250,0.906264,-0.437507,-0.062501,-76.563667,-76.563667,38.281834
1583521670.431628,109.000000,0.000000,4210.769043,4260.512695,4061.025635,3936.410156,4205.641113,450.000000,4.000000,,,,0.000000,4.000000,4.000000,4.000000,4.000000,4.000000,,,,,,,,,,,,
1583521670.439525,110.000000,0.000000,4203.077148,4258.461426,4058.461426,3929.230713,4199.487305,450.000000,4.000000,,,,0.000000,4.000000,4.000000,4.000000,4.000000,4.000000,55.000000,0.000000,0.699295,0.187500,0.671875,0.156250,0.906264,-0.406256,-0.031250,-76.563667,-76.563667,38.281834
1583521670.447422,111.000000,0.000000,4195.384766,4248.205078,4054.871826,3932.820557,4183.589844,1023.000000,4.000000,,,,0.000000,4.000000,4.000000,4.000000,4.000000,4.000000,,,,,,,,,,,,
1583521670.455119,112.000000,0.000000,4204.615234,4250.256348,4055.897461,3927.692383,4177.436035,450.000000,4.000000,,,,0.000000,4.000000,4.000000,4.000000,4.000000,4.000000,56.000000,0.000000,0.699295,0.187500,0.671875,0.156250,0.906264,-0.406256,-0.031250,-76.563667,-76.563667,38.281834
1583521670.463016,113.000000,0.000000,4217.948730,4260.512695,4058.974365,3926.153809,4190.256348,450.000000,4.000000,,,,0.000000,4.000000,4.000000,4.000000,4.000000,4.000000,,,,,,,,,,,,
1583521670.470913,114.000000,0.000000,4225.641113,4270.769043,4065.641113,3934.871826,4206.666504,450.000000,4.000000,,,,0.000000,4.000000,4.000000,4.000000,4.000000,4.000000,57.000000,0.000000,0.699295,0.187500,0.671875,0.156250,0.906264,-0.406256,-0.062501,-76.563667,-76.563667,38.281834
1583521670.478809,115.000000,0.000000,4216.922852,4262.563965,4072.820557,3933.846191,4201.538574,1023.000000,4.000000,,,,0.000000,4.000000,4.000000,4.000000,4.000000,4.000000,,,,,,,,,,,,
1583521670.486506,116.000000,0.000000,4219.487305,4262.563965,4085.128174,3933.846191,4203.077148,450.000000,4.000000,,,,0.000000,4.000000,4.000000,4.000000,4.000000,4.000000,58.000000,0.000000,0.699295,0.187500,0.671875,0.156250,0.906264,-0.375006,-0.031250,-76.563667,-76.563667,38.281834
1583521670.494202,117.000000,0.000000,4231.282227,4266.666504,4093.846191,3939.487061,4211.794922,450.000000,4.000000,,,,0.000000,4.000000,4.000000,4.000000,4.000000,4.000000,,,,,,,,,,,,
1583521670.501899,118.000000,0.000000,4242.563965,4272.820313,4102.563965,3940.000000,4215.384766,450.000000,4.000000,,,,0.000000,4.000000,4.000000,4.000000,4.000000,4.000000,59.000000,0.000000,0.699295,0.187500,0.671875,0.156250,0.906264,-0.406256,-0.062501,-76.563667,-76.563667,38.281834
1583521670.509595,119.000000,0.000000,4246.153809,4272.820313,4104.102539,3935.384521,4216.410156,1023.000000,4.000000,,,,0.000000,4.000000,4.000000,4.000000,4.000000,4.000000,,,,,,,,,,,,
1583521670.517293,120.000000,0.000000,4246.153809,4262.563965,4100.000000,3946.153809,4218.974121,450.000000,4.000000,,,,0.000000,4.000000,4.000000,4.000000,4.000000,4.000000,60.000000,0.000000,0.699295,0.187500,0.671875,0.156250,0.906264,-0.406256,-0.062501,-76.563667,-76.563667,38.281834
1583521670.525189,121.000000,0.000000,4248.717773,4258.461426,4097.436035,3947.692383,4220.512695,450.000000,4.000000,,,,0.000000,4.000000,4.000000,4.000000,4.000000,4.000000,,,,,,,,,,,,
1583521670.532886,122.000000,0.000000,4245.128418,4264.615234,4099.487305,3928.718018,4221.025879,450.000000,4.000000,,,,0.000000,4.000000,4.000000,4.000000,4.000000,4.000000,61.000000,0.000000,0.699295,0.187500,0.671875,0.156250,0.906264,-0.437507,-0.062501,-76.563667,-76.563667,38.281834
1583521670.540582,123.000000,0.000000,4236.922852,4264.615234,4095.384521,3915.384521,4215.384766,1023.000000,4.000000,,,,0.000000,4.000000,4.000000,4.000000,4.000000,4.000000,,,,,,,,,,,,
1583521670.548280,124.000000,0.000000,4243.077148,4262.563965,4094.871826,3930.256348,4217.948730,450.000000,4.000000,,,,0.000000,4.000000,4.000000,4.000000,4.000000,4.000000,62.000000,0.000000,0.699295,0.187500,0.671875,0.156250,0.906264,-0.437507,-0.062501,-76.563667,-76.563667,38.281834
1583521670.556177,125.000000,0.000000,4247.179688,4262.563965,4097.436035,3933.333252,4227.692383,450.000000,4.000000,,,,0.000000,4.000000,4.000000,4.000000,4.000000,4.000000,,,,,,,,,,,,
1583521670.563873,126.000000,0.000000,4229.230957,4254.358887,4089.743652,3917.948730,4217.436035,450.000000,4.000000,,,,0.000000,4.000000,4.000000,4.000000,4.000000,4.000000,63.000000,0.000000,0.699295,0.187500,0.671875,0.156250,0.906264,-0.437507,-0.062501,-76.563667,-76.563667,38.281834
1583521670.571569,127.000000,0.000000,4225.641113,4252.307617,4080.512939,3916.410156,4209.230957,243.000000,4.000000,,,,0.000000,4.000000,4.000000,4.000000,4.000000,4.000000,,,,,,,,,,,,
1583521670.579267,0.000000,0.000000,4232.307617,4254.358887,4085.128174,3933.333252,4217.436035,450.000000,4.000000,,,,0.000000,4.000000,4.000000,4.000000,4.000000,4.000000,0.000000,0.000000,0.699295,0.187500,0.671875,0.156250,0.906264,-0.437507,-0.062501,-76.563667,-76.563667,38.281834
1583521670.587163,1.000000,0.000000,4227.179688,4254.358887,4091.281982,3938.974365,4230.769043,450.000000,4.000000,,,,0.000000,4.000000,4.000000,4.000000,4.000000,4.000000,,,,,,,,,,,,
1583521670.594861,2.000000,0.000000,4213.846191,4250.256348,4092.820557,3932.820557,4225.128418,1023.000000,4.000000,,,,0.000000,4.000000,4.000000,4.000000,4.000000,4.000000,1.000000,0.000000,0.699295,0.187500,0.671875,0.156250,0.906264,-0.437507,-0.031250,-76.563667,-76.563667,38.281834
1583521670.602757,3.000000,0.000000,4232.820313,4262.563965,4100.000000,3931.281982,4226.666504,450.000000,4.000000,,,,0.000000,4.000000,4.000000,4.000000,4.000000,4.000000,,,,,,,,,,,,
1583521670.610454,4.000000,0.000000,4249.743652,4264.615234,4098.461426,3926.666748,4228.717773,1023.000000,4.000000,,,,0.000000,4.000000,4.000000,4.000000,4.000000,4.000000,2.000000,0.000000,0.699295,0.187500,0.671875,0.156250,0.906264,-0.437507,-0.031250,-76.563667,-76.563667,38.281834
1583521670.618351,5.000000,0.000000,4226.666504,4254.358887,4097.948730,3925.641113,4222.563965,450.000000,4.000000,,,,0.000000,4.000000,4.000000,4.000000,4.000000,4.000000,,,,,,,,,,,,
1583521670.626049,6.000000,0.000000,4197.436035,4246.153809,4099.487305,3925.128174,4211.282227,1023.000000,4.000000,,,,0.000000,4.000000,4.000000,4.000000,4.000000,4.000000,3.000000,0.000000,0.699295,0.187500,0.671875,0.156250,0.906264,-0.468757,-0.031250,-76.563667,-76.563667,38.281834
1583521670.633946,7.000000,0.000000,4223.077148,4254.358887,4090.769287,3918.974365,4215.384766,450.000000,4.000000,,,,0.000000,4.000000,4.000000,4.000000,4.000000,4.000000,,,,,,,,,,,,
1583521670.641844,8.000000,0.000000,4259.487305,4258.461426,4074.871826,3909.743652,4225.641113,450.000000,4.000000,,,,0.000000,4.000000,4.000000,4.000000,4.000000,4.000000,4.000000,0.000000,0.699295,0.187500,0.671875,0.156250,0.906264,-0.468757,-0.031250,-76.563667,-76.563667,38.281834
1583521670.649741,9.000000,0.000000,4272.820313,4258.461426,4081.025635,3918.974365,4253.333496,1023.000000,4.000000,,,,0.000000,4.000000,4.000000,4.000000,4.000000,4.000000,,,,,,,,,,,,
1583521670.657639,10.000000,0.000000,4289.230957,4266.666504,4088.718018,3929.230713,4293.333496,450.000000,4.000000,,,,0.000000,4.000000,4.000000,4.000000,4.000000,4.000000,5.000000,0.000000,0.699295,0.187500,0.671875,0.156250,0.906264,-0.468757,-0.031250,-76.563667,-76.563667,38.281834
1583521670.665536,11.000000,0.000000,4306.153809,4272.820313,4087.179443,3929.230713,4297.436035,1023.000000,4.000000,,,,0.000000,4.000000,4.000000,4.000000,4.000000,4.000000,,,,,,,,,,,,
1583521670.673433,12.000000,0.000000,4306.666504,4274.871582,4092.820557,3923.076904,4277.948730,450.000000,4.000000,,,,0.000000,4.000000,4.000000,4.000000,4.000000,4.000000,6.000000,0.000000,0.699295,0.187500,0.671875,0.156250,0.906264,-0.437507,-0.031250,-76.563667,-76.563667,38.281834
1583521670.681329,13.000000,0.000000,4297.436035,4268.717773,4095.897461,3916.410156,4276.410156,450.000000,4.000000,,,,0.000000,4.000000,4.000000,4.000000,4.000000,4.000000,,,,,,,,,,,,
1583521670.689026,14.000000,0.000000,4292.307617,4268.717773,4089.743652,3902.564209,4286.666504,450.000000,4.000000,,,,0.000000,4.000000,4.000000,4.000000,4.000000,4.000000,7.000000,0.000000,0.699295,0.187500,0.671875,0.156250,0.875013,-0.468757,-0.031250,-76.563667,-76.563667,38.281834
1583521670.696722,15.000000,0.000000,4284.102539,4276.922852,4092.820557,3904.615479,4281.538574,1023.000000,4.000000,,,,0.000000,4.000000,4.000000,4.000000,4.000000,4.000000,,,,,,,,,,,,
1583521670.704419,16.000000,0.000000,4281.025879,4281.025879,4098.461426,3909.743652,4281.025879,0.000000,4.000000,,,,0.000000,4.000000,4.000000,4.000000,4.000000,4.000000,8.000000,0.000000,0.699295,0.187500,0.671875,0.156250,0.906264,-0.468757,-0.031250,-76.563667,-76.563667,38.281834
1583521670.712115,17.000000,0.000000,4273.846191,4270.769043,4096.922852,3900.000000,4275.384766,0.000000,4.000000,,,,0.000000,4.000000,4.000000,4.000000,4.000000,4.000000,,,,,,,,,,,,
1583521670.719813,18.000000,0.000000,4271.794922,4268.717773,4097.436035,3901.538574,4271.282227,0.000000,4.000000,,,,0.000000,4.000000,4.000000,4.000000,4.000000,4.000000,9.000000,0.000000,0.699295,0.187500,0.671875,0.156250,0.875013,-0.468757,-0.031250,-76.563667,-76.563667,38.281834
1583521670.727710,19.000000,0.000000,4262.563965,4266.666504,4094.358887,3918.974365,4270.769043,0.000000,4.000000,,,,0.000000,4.000000,4.000000,4.000000,4.000000,4.000000,,,,,,,,,,,,
1583521670.735407,20.000000,0.000000,4267.179688,4270.769043,4092.307617,3920.000000,4276.410156,0.000000,4.000000,,,,0.000000,4.000000,4.000000,4.000000,4.000000,4.000000,10.000000,0.000000,0.699295,0.187500,0.671875,0.156250,0.906264,-0.468757,-0.031250,-76.563667,-76.563667,38.281834
1583521670.743304,21.000000,0.000000,4276.922852,4268.717773,4095.384521,3905.128174,4266.666504,0.000000,4.000000,,,,0.000000,4.000000,4.000000,4.000000,4.000000,4.000000,,,,,,,,,,,,
1583521670.751002,22.000000,0.000000,4270.769043,4264.615234,4100.512695,3907.179443,4259.487305,0.000000,4.000000,,,,0.000000,4.000000,4.000000,4.000000,4.000000,4.000000,11.000000,0.000000,0.699295,0.187500,0.671875,0.156250,0.906264,-0.437507,-0.031250,-76.563667,-76.563667,38.281834
1583521670.758899,23.000000,0.000000,4262.051270,4262.563965,4102.051270,3913.333252,4271.794922,0.000000,4.000000,,,,0.000000,4.000000,4.000000,4.000000,4.000000,4.000000,,,,,,,,,,,,
1583521670.766595,24.000000,0.000000,4273.846191,4272.820313,4105.128418,3921.538574,4290.256348,0.000000,4.000000,,,,0.000000,4.000000,4.000000,4.000000,4.000000,4.000000,12.000000,0.000000,0.699295,0.187500,0.671875,0.156250,0.906264,-0.437507,-0.031250,-76.563667,-76.563667,38.281834
1583521670.774292,25.000000,0.000000,4278.461426,4276.922852,4096.922852,3922.564209,4284.615234,0.000000,4.000000,,,,0.000000,4.000000,4.000000,4.000000,4.000000,4.000000,,,,,,,,,,,,
1583521670.781988,26.000000,0.000000,4271.282227,4268.717773,4093.333252,3916.410156,4268.717773,0.000000,4.000000,,,,0.000000,4.000000,4.000000,4.000000,4.000000,4.000000,13.000000,0.000000,0.699295,0.187500,0.671875,0.156250,0.875013,-0.437507,-0.031250,-76.563667,-76.563667,38.281834
1583521670.789684,27.000000,0.000000,4275.897461,4268.717773,4094.871826,3908.718018,4271.282227,0.000000,4.000000,,,,0.000000,4.000000,4.000000,4.000000,4.000000,4.000000,,,,,,,,,,,,
1583521670.797382,28.000000,0.000000,4285.641113,4270.769043,4090.256348,3913.846191,4281.538574,0.000000,4.000000,,,,0.000000,4.000000,4.000000,4.000000,4.000000,4.000000,14.000000,0.000000,0.699295,0.187500,0.671875,0.156250,0.906264,-0.437507,-0.031250,-76.563667,-76.563667,38.281834
1583521670.805278,29.000000,0.000000,4287.179688,4262.563965,4085.128174,3924.615479,4282.563965,0.000000,4.000000,,,,0.000000,4.000000,4.000000,4.000000,4.000000,4.000000,,,,,,,,,,,,
1583521670.812975,30.000000,0.000000,4287.179688,4264.615234,4097.948730,3932.307617,4282.563965,0.000000,4.000000,,,,0.000000,4.000000,4.000000,4.000000,4.000000,4.000000,15.000000,0.000000,0.699295,0.187500,0.671875,0.156250,0.875013,-0.437507,-0.031250,-76.563667,-76.563667,38.281834
1583521670.820872,31.000000,0.000000,4296.410156,4276.922852,4105.641113,3926.666748,4295.897461,0.000000,4.000000,,,,0.000000,4.000000,4.000000,4.000000,4.000000,4.000000,,,,,,,,,,,,
1583521670.828569,32.000000,0.000000,4293.333496,4270.769043,4094.358887,3913.333252,4286.666504,0.000000,4.000000,,,,0.000000,4.000000,4.000000,4.000000,4.000000,4.000000,16.000000,0.000000,0.699295,0.187500,0.671875,0.156250,0.906264,-0.437507,-0.031250,-76.563667,-76.563667,38.281834
1583521670.836465,33.000000,0.000000,4290.769043,4262.563965,4093.846191,3904.615479,4272.307617,0.000000,4.000000,,,,0.000000,4.000000,4.000000,4.000000,4.000000,4.000000,,,,,,,,,,,,
1583521670.844163,34.000000,0.000000,4283.589844,4260.512695,4099.487305,3905.128174,4267.692383,0.000000,4.000000,,,,0.000000,4.000000,4.000000,4.000000,4.000000,4.000000,17.000000,0.000000,0.699295,0.187500,0.671875,0.156250,0.875013,-0.437507,-0.031250,-76.563667,-76.563667,38.281834
1583521670.852061,35.000000,0.000000,4277.948730,4258.461426,4095.897461,3903.589844,4269.743652,0.000000,4.000000,,,,0.000000,4.000000,4.000000,4.000000,4.000000,4.000000,,,,,,,,,,,,
1583521670.859959,36.000000,0.000000,4273.333496,4254.358887,4090.256348,3887.692383,4271.794922,0.000000,4.000000,,,,0.000000,4.000000,4.000000,4.000000,4.000000,4.000000,18.000000,0.000000,0.699295,0.187500,0.671875,0.156250,0.906264,-0.468757,-0.031250,-76.563667,-76.563667,38.281834
1583521670.867856,37.000000,0.000000,4271.794922,4264.615234,4091.794922,3879.487061,4283.077148,0.000000,4.000000,,,,0.000000,4.000000,4.000000,4.000000,4.000000,4.000000,,,,,,,,,,,,
1583521670.875752,38.000000,0.000000,4255.897461,4264.615234,4083.076904,3880.000000,4273.333496,0.000000,4.000000,,,,0.000000,4.000000,4.000000,4.000000,4.000000,4.000000,19.000000,0.000000,0.699295,0.187500,0.671875,0.156250,0.906264,-0.468757,-0.031250,-76.563667,-76.563667,38.281834
1583521670.883648,39.000000,0.000000,4252.307617,4262.563965,4085.128174,3881.538574,4261.538574,0.000000,4.000000,,,,0.000000,4.000000,4.000000,4.000000,4.000000,4.000000,,,,,,,,,,,,
1583521670.891347,40.000000,0.000000,4264.102539,4270.769043,4101.538574,3878.974365,4270.769043,0.000000,4.000000,,,,0.000000,4.000000,4.000000,4.000000,4.000000,4.000000,20.000000,0.000000,0.699295,0.187500,0.671875,0.156250,0.906264,-0.468757,-0.031250,-76.563667,-76.563667,38.281834
1583521670.899243,41.000000,0.000000,4262.563965,4278.974121,4106.153809,3888.718018,4277.436035,0.000000,4.000000,,,,0.000000,4.000000,4.000000,4.000000,4.000000,4.000000,,,,,,,,,,,,
1583521670.907140,42.000000,0.000000,4251.794922,4270.769043,4096.410156,3885.641113,4266.153809,0.000000,4.000000,,,,0.000000,4.000000,4.000000,4.000000,4.000000,4.000000,21.000000,0.000000,0.699295,0.187500,0.671875,0.156250,0.906264,-0.468757,-0.031250,-76.563667,-76.563667,38.281834
1583521670.914836,43.000000,0.000000,4248.717773,4258.461426,4093.333252,3867.692383,4256.410156,0.000000,4.000000,,,,0.000000,4.000000,4.000000,4.000000,4.000000,4.000000,,,,,,,,,,,,
1583521670.922534,44.000000,0.000000,4251.794922,4264.615234,4093.333252,3854.871826,4265.128418,0.000000,4.000000,,,,0.000000,4.000000,4.000000,4.000000,4.000000,4.000000,22.000000,0.000000,0.699295,0.187500,0.671875,0.156250,0.906264,-0.437507,-0.031250,-76.563667,-76.563667,38.281834
1583521670.930430,45.000000,0.000000,4238.974121,4270.769043,4095.897461,3863.589844,4264.102539,0.000000,4.000000,,,,0.000000,4.000000,4.000000,4.000000,4.000000,4.000000,,,,,,,,,,,,
1583521670.938127,46.000000,0.000000,4237.948730,4272.820313,4098.974121,3872.307617,4265.128418,0.000000,4.000000,,,,0.000000,4.000000,4.000000,4.000000,4.000000,4.000000,23.000000,0.000000,0.699295,0.187500,0.671875,0.156250,0.906264,-0.468757,-0.031250,-76.563667,-76.563667,38.281834
1583521670.945823,47.000000,0.000000,4252.820313,4268.717773,4095.384521,3873.846191,4276.922852,0.000000,4.000000,,,,0.000000,4.000000,4.000000,4.000000,4.000000,4.000000,,,,,,,,,,,,
1583521670.953521,48.000000,0.000000,4272.820313,4272.820313,4095.897461,3881.538574,4298.974121,0.000000,4.000000,,,,0.000000,4.000000,4.000000,4.000000,4.000000,4.000000,24.000000,0.000000,0.699295,0.187500,0.671875,0.156250,0.906264,-0.468757,-0.031250,-76.563667,-76.563667,38.281834
1583521670.961417,49.000000,0.000000,4275.897461,4276.922852,4102.563965,3886.153809,4306.153809,0.000000,4.000000,,,,0.000000,4.000000,4.000000,4.000000,4.000000,4.000000,,,,,,,,,,,,
1583521670.969115,50.000000,0.000000,4269.230957,4276.922852,4101.538574,3874.358887,4302.051270,0.000000,4.000000,,,,0.000000,4.000000,4.000000,4.000000,4.000000,4.000000,25.000000,0.000000,0.699295,0.187500,0.671875,0.156250,0.906264,-0.437507,-0.031250,-76.563667,-76.563667,38.281834
1583521670.977011,51.000000,0.000000,4252.307617,4266.666504,4086.666748,3864.615479,4283.077148,0.000000,4.000000,,,,0.000000,4.000000,4.000000,4.000000,4.000000,4.000000,,,,,,,,,,,,
1583521670.984709,52.000000,0.000000,4244.615234,4266.666504,4080.512939,3874.871826,4278.974121,0.000000,4.000000,,,,0.000000,4.000000,4.000000,4.000000,4.000000,4.000000,26.000000,0.000000,0.699295,0.187500,0.671875,0.156250,0.906264,-0.468757,-0.031250,-76.563667,-76.563667,38.281834
1583521670.992606,53.000000,0.000000,4243.589844,4268.717773,4089.230713,3886.153809,4286.666504,0.000000,4.000000,,,,0.000000,4.000000,4.000000,4.000000,4.000000,4.000000,,,,,,,,,,,,
1583521671.000503,54.000000,0.000000,4244.102539,4272.820313,4105.128418,3890.769287,4289.743652,0.000000,4.000000,,,,0.000000,4.000000,4.000000,4.000000,4.000000,4.000000,27.000000,0.000000,0.699295,0.187500,0.671875,0.156250,0.906264,-0.437507,-0.062501,-76.563667,-76.563667,38.281834
1583521671.008400,55.000000,0.000000,4242.563965,4276.922852,4101.538574,3885.128174,4287.179688,0.000000,4.000000,,,,0.000000,4.000000,4.000000,4.000000,4.000000,4.000000,,,,,,,,,,,,
1583521671.016097,56.000000,0.000000,4231.794922,4278.974121,4092.307617,3883.589844,4278.461426,0.000000,4.000000,,,,0.000000,4.000000,4.000000,4.000000,4.000000,4.000000,28.000000,0.000000,0.699295,0.187500,0.671875,0.156250,0.906264,-0.437507,-0.062501,-76.563667,-76.563667,38.281834
1583521671.023993,57.000000,0.000000,4223.589844,4276.922852,4097.436035,3884.102539,4267.179688,0.000000,4.000000,,,,0.000000,4.000000,4.000000,4.000000,4.000000,4.000000,,,,,,,,,,,,
1583521671.031690,58.000000,0.000000,4237.948730,4276.922852,4111.282227,3886.153809,4270.769043,0.000000,4.000000,,,,0.000000,4.000000,4.000000,4.000000,4.000000,4.000000,29.000000,0.000000,0.699295,0.187500,0.671875,0.156250,0.906264,-0.437507,-0.062501,-76.563667,-76.563667,38.281834
1583521671.039587,59.000000,0.000000,4247.692383,4278.974121,4107.692383,3878.461426,4274.358887,0.000000,4.000000,,,,0.000000,4.000000,4.000000,4.000000,4.000000,4.000000,,,,,,,,,,,,
1583521671.047285,60.000000,0.000000,4227.179688,4272.820313,4096.922852,3876.410156,4257.948730,0.000000,4.000000,,,,0.000000,4.000000,4.000000,4.000000,4.000000,4.000000,30.000000,0.000000,0.699295,0.187500,0.671875,0.156250,0.906264,-0.437507,-0.062501,-76.563667,-76.563667,38.281834
1583521671.055182,61.000000,0.000000,4222.051270,4270.769043,4093.333252,3893.333252,4250.256348,0.000000,4.000000,,,,0.000000,4.000000,4.000000,4.000000,4.000000,4.000000,,,,,,,,,,,,
1583521671.063080,62.000000,0.000000,4242.051270,4266.666504,4097.436035,3907.179443,4250.769043,0.000000,4.000000,,,,0.000000,4.000000,4.000000,4.000000,4.000000,4.000000,31.000000,0.000000,0.699295,0.187500,0.671875,0.156250,0.906264,-0.437507,-0.031250,-76.563667,-76.563667,38.281834
1583521671.070977,63.000000,0.000000,4259.487305,4272.820313,4106.153809,3896.410156,4260.000000,0.000000,4.000000,,,,0.000000,4.000000,4.000000,4.000000,4.000000,4.000000,,,,,,,,,,,,
1583521671.078874,64.000000,0.000000,4249.230957,4272.820313,4105.128418,3885.128174,4260.000000,450.000000,4.000000,,,,0.000000,4.000000,4.000000,4.000000,4.000000,4.000000,32.000000,0.000000,0.699295,0.187500,0.671875,0.156250,0.906264,-0.437507,-0.031250,-76.563667,-76.563667,38.281834
1583521671.086670,65.000000,0.000000,4241.025879,4266.666504,4099.487305,3895.384521,4246.153809,450.000000,4.000000,,,,0.000000,4.000000,4.000000,4.000000,4.000000,4.000000,,,,,,,,,,,,
1583521671.094368,66.000000,0.000000,4243.077148,4266.666504,4104.102539,3898.974365,4235.897461,1023.000000,4.000000,,,,0.000000,4.000000,4.000000,4.000000,4.000000,4.000000,33.000000,0.000000,0.699295,0.187500,0.671875,0.156250,0.906264,-0.437507,-0.031250,-76.563667,-76.563667,38.281834
1583521671.102265,67.000000,0.000000,4250.769043,4276.922852,4112.307617,3895.897461,4248.205078,450.000000,4.000000,,,,0.000000,4.000000,4.000000,4.000000,4.000000,4.000000,,,,,,,,,,,,
1583521671.109963,68.000000,0.000000,4242.051270,4270.769043,4100.512695,3893.333252,4243.077148,1023.000000,4.000000,,,,0.000000,4.000000,4.000000,4.000000,4.000000,4.000000,34.000000,0.000000,0.699295,0.187500,0.671875,0.156250,0.906264,-0.437507,-0.031250,-76.563667,-76.563667,38.281834
1583521671.117859,69.000000,0.000000,4237.948730,4260.512695,4095.384521,3892.820557,4232.307617,450.000000,4.000000,,,,0.000000,4.000000,4.000000,4.000000,4.000000,4.000000,,,,,,,,,,,,
1583521671.125556,70.000000,0.000000,4245.128418,4258.461426,4105.128418,3897.948730,4240.000000,1023.000000,4.000000,,,,0.000000,4.000000,4.000000,4.000000,4.000000,4.000000,35.000000,0.000000,0.699295,0.187500,0.671875,0.156250,0.906264,-0.437507,-0.062501,-76.563667,-76.563667,38.281834
1583521671.133252,71.000000,0.000000,4251.794922,4268.717773,4116.410156,3915.384521,4256.922852,450.000000,4.000000,,,,0.000000,4.000000,4.000000,4.000000,4.000000,4.000000,,,,,,,,,,,,
1583521671.140950,72.000000,0.000000,4248.205078,4268.717773,4114.871582,3907.692383,4253.846191,450.000000,4.000000,,,,0.000000,4.000000,4.000000,4.000000,4.000000,4.000000,36.000000,0.000000,0.699295,0.187500,0.671875,0.156250,0.906264,-0.437507,-0.031250,-76.563667,-76.563667,38.281834
1583521671.148846,73.000000,0.000000,4243.589844,4260.512695,4103.077148,3885.641113,4238.461426,1023.000000,4.000000,,,,0.000000,4.000000,4.000000,4.000000,4.000000,4.000000,,,,,,,,,,,,
1583521671.156544,74.000000,0.000000,4246.666504,4262.563965,4093.333252,3885.128174,4239.487305,450.000000,4.000000,,,,0.000000,4.000000,4.000000,4.000000,4.000000,4.000000,37.000000,0.000000,0.699295,0.187500,0.671875,0.156250,0.906264,-0.437507,-0.031250,-76.563667,-76.563667,38.281834
1583521671.164440,75.000000,0.000000,4244.615234,4266.666504,4100.512695,3906.666748,4241.025879,1023.000000,4.000000,,,,0.000000,4.000000,4.000000,4.000000,4.000000,4.000000,,,,,,,,,,,,
1583521671.172138,76.000000,0.000000,4241.025879,4270.769043,4107.179688,3912.307617,4235.384766,450.000000,4.000000,,,,0.000000,4.000000,4.000000,4.000000,4.000000,4.000000,38.000000,0.000000,0.699295,0.187500,0.671875,0.156250,0.906264,-0.468757,-0.031250,-76.563667,-76.563667,38.281834
1583521671.180034,77.000000,0.000000,4240.512695,4270.769043,4102.051270,3903.589844,4234.358887,450.000000,4.000000,,,,0.000000,4.000000,4.000000,4.000000,4.000000,4.000000,,,,,,,,,,,,
1583521671.187731,78.000000,0.000000,4247.692383,4270.769043,4096.922852,3898.974365,4248.717773,450.000000,4.000000,,,,0.000000,4.000000,4.000000,4.000000,4.000000,4.000000,39.000000,0.000000,0.699295,0.187500,0.671875,0.156250,0.906264,-0.437507,-0.031250,-76.563667,-76.563667,38.281834
1583521671.195426,79.000000,0.000000,4246.153809,4266.666504,4092.820557,3906.666748,4248.717773,1023.000000,4.000000,,,,0.000000,4.000000,4.000000,4.000000,4.000000,4.000000,,,,,,,,,,,,
1583521671.203124,80.000000,0.000000,4251.794922,4276.922852,4097.436035,3903.589844,4247.179688,450.000000,4.000000,,,,0.000000,4.000000,4.000000,4.000000,4.000000,4.000000,40.000000,0.000000,0.699295,0.187500,0.671875,0.156250,0.906264,-0.468757,-0.031250,-76.563667,-76.563667,38.281834
1583521671.211020,81.000000,0.000000,4260.000000,4278.974121,4107.179688,3888.205078,4243.077148,450.000000,4.000000,,,,0.000000,4.000000,4.000000,4.000000,4.000000,4.000000,,,,,,,,,,,,
1583521671.218717,82.000000,0.000000,4267.179688,4268.717773,4101.538574,3889.743652,4246.666504,450.000000,4.000000,,,,0.000000,4.000000,4.000000,4.000000,4.000000,4.000000,41.000000,0.000000,0.699295,0.187500,0.671875,0.156250,0.906264,-0.468757,-0.031250,-76.563667,-76.563667,38.281834
1583521671.226613,83.000000,0.000000,4263.077148,4262.563965,4093.333252,3900.512939,4252.307617,1023.000000,4.000000,,,,0.000000,4.000000,4.000000,4.000000,4.000000,4.000000,,,,,,,,,,,,
1583521671.234311,84.000000,0.000000,4260.512695,4264.615234,4111.282227,3903.076904,4246.666504,450.000000,4.000000,,,,0.000000,4.000000,4.000000,4.000000,4.000000,4.000000,42.000000,0.000000,0.699295,0.187500,0.671875,0.156250,0.906264,-0.437507,-0.031250,-76.563667,-76.563667,38.281834
1583521671.242207,85.000000,0.000000,4262.563965,4260.512695,4116.410156,3902.051270,4244.615234,450.000000,4.000000,,,,0.000000,4.000000,4.000000,4.000000,4.000000,4.000000,,,,,,,,,,,,
1583521671.249904,86.000000,0.000000,4281.538574,4258.461426,4096.922852,3910.256348,4272.307617,450.000000,4.000000,,,,0.000000,4.000000,4.000000,4.000000,4.000000,4.000000,43.000000,0.000000,0.699295,0.187500,0.671875,0.156250,0.906264,-0.468757,-0.031250,-76.563667,-76.563667,38.281834
1583521671.257800,87.000000,0.000000,4297.436035,4266.666504,4083.076904,3907.179443,4289.230957,1023.000000,4.000000,,,,0.000000,4.000000,4.000000,4.000000,4.000000,4.000000,,,,,,,,,,,,
1583521671.265498,88.000000,0.000000,4288.717773,4268.717773,4091.281982,3905.641113,4276.922852,450.000000,4.000000,,,,0.000000,4.000000,4.000000,4.000000,4.000000,4.000000,44.000000,0.000000,0.699295,0.187500,0.671875,0.156250,0.906264,-0.437507,-0.031250,-76.563667,-76.563667,38.281834
1583521671.273395,89.000000,0.000000,4274.358887,4258.461426,4091.794922,3908.205078,4266.153809,450.000000,4.000000,,,,0.000000,4.000000,4.000000,4.000000,4.000000,4.000000,,,,,,,,,,,,
1583521671.281292,90.000000,0.000000,4269.743652,4256.410156,4086.666748,3914.358887,4266.666504,450.000000,4.000000,,,,0.000000,4.000000,4.000000,4.000000,4.000000,4.000000,45.000000,0.000000,0.699295,0.187500,0.671875,0.156250,0.906264,-0.468757,-0.031250,-76.563667,-76.563667,38.281834
1583521671.288988,91.000000,0.000000,4276.922852,4268.717773,4092.820557,3914.358887,4275.897461,1023.000000,4.000000,,,,0.000000,4.000000,4.000000,4.000000,4.000000,4.000000,,,,,,,,,,,,
1583521671.296685,92.000000,0.000000,4278.461426,4270.769043,4101.025879,3909.743652,4280.000000,450.000000,4.000000,,,,0.000000,4.000000,4.000000,4.000000,4.000000,4.000000,46.000000,0.000000,0.699295,0.187500,0.671875,0.156250,0.906264,-0.437507,-0.031250,-76.563667,-76.563667,38.281834
1583521671.304381,93.000000,0.000000,4268.205078,4266.666504,4101.025879,3910.256348,4276.922852,450.000000,4.000000,,,,0.000000,4.000000,4.000000,4.000000,4.000000,4.000000,,,,,,,,,,,,
1583521671.312079,94.000000,0.000000,4256.410156,4262.563965,4098.974121,3909.743652,4268.717773,450.000000,4.000000,,,,0.000000,4.000000,4.000000,4.000000,4.000000,4.000000,47.000000,0.000000,0.699295,0.187500,0.671875,0.156250,0.906264,-0.437507,-0.031250,-76.563667,-76.563667,38.281834
1583521671.319975,95.000000,0.000000,4266.153809,4272.820313,4095.897461,3893.846191,4265.128418,1023.000000,4.000000,,,,0.000000,4.000000,4.000000,4.000000,4.000000,4.000000,,,,,,,,,,,,
1583521671.327673,96.000000,0.000000,4267.179688,4274.871582,4091.794922,3883.076904,4254.358887,450.000000,4.000000,,,,0.000000,4.000000,4.000000,4.000000,4.000000,4.000000,48.000000,0.000000,0.699295,0.187500,0.671875,0.156250,0.875013,-0.468757,-0.031250,-76.563667,-76.563667,38.281834
1583521671.335570,97.000000,0.000000,4255.897461,4266.666504,4093.333252,3897.435791,4250.769043,450.000000,4.000000,,,,0.000000,4.000000,4.000000,4.000000,4.000000,4.000000,,,,,,,,,,,,
1583521671.343267,98.000000,0.000000,4255.384766,4254.358887,4089.743652,3910.769287,4251.794922,450.000000,4.000000,,,,0.000000,4.000000,4.000000,4.000000,4.000000,4.000000,49.000000,0.000000,0.699295,0.187500,0.671875,0.156250,0.906264,-0.437507,-0.031250,-76.563667,-76.563667,38.281834
1583521671.351164,99.000000,0.000000,4281.538574,4266.666504,4083.589844,3908.205078,4258.461426,1023.000000,4.000000,,,,0.000000,4.000000,4.000000,4.000000,4.000000,4.000000,,,,,,,,,,,,
1583521671.358862,100.000000,0.000000,4288.205078,4276.922852,4074.358887,3896.923096,4260.000000,450.000000,4.000000,,,,0.000000,4.000000,4.000000,4.000000,4.000000,4.000000,50.000000,0.000000,0.699295,0.187500,0.671875,0.156250,0.906264,-0.437507,-0.031250,-76.563667,-76.563667,38.281834
1583521671.366758,101.000000,0.000000,4274.871582,4268.717773,4076.410156,3894.358887,4254.358887,450.000000,4.000000,,,,0.000000,4.000000,4.000000,4.000000,4.000000,4.000000,,,,,,,,,,,,
1583521671.374456,102.000000,0.000000,4268.205078,4258.461426,4083.589844,3890.769287,4245.641113,450.000000,4.000000,,,,0.000000,4.000000,4.000000,4.000000,4.000000,4.000000,51.000000,0.000000,0.699295,0.187500,0.671875,0.156250,0.906264,-0.468757,-0.031250,-76.563667,-76.563667,38.281834
1583521671.382352,103.000000,0.000000,4277.436035,4268.717773,4093.333252,3901.538574,4255.384766,1023.000000,4.000000,,,,0.000000,4.000000,4.000000,4.000000,4.000000,4.000000,,,,,,,,,,,,
1583521671.390049,104.000000,0.000000,4290.769043,4278.974121,4096.410156,3922.051270,4272.820313,450.000000,4.000000,,,,0.000000,4.000000,4.000000,4.000000,4.000000,4.000000,52.000000,0.000000,0.699295,0.187500,0.671875,0.156250,0.906264,-0.437507,-0.031250,-76.563667,-76.563667,38.281834
1583521671.397744,105.000000,0.000000,4284.102539,4272.820313,4092.820557,3925.128174,4271.794922,450.000000,4.000000,,,,0.000000,4.000000,4.000000,4.000000,4.000000,4.000000,,,,,,,,,,,,
1583521671.405440,106.000000,0.000000,4254.358887,4260.512695,4077.948730,3904.615479,4259.487305,450.000000,4.000000,,,,0.000000,4.000000,4.000000,4.000000,4.000000,4.000000,53.000000,0.000000,0.699295,0.187500,0.671875,0.156250,0.906264,-0.437507,-0.031250,-76.563667,-76.563667,38.281834
1583521671.413136,107.000000,0.000000,4229.743652,4254.358887,4073.333252,3900.512939,4250.769043,1023.000000,4.000000,,,,0.000000,4.000000,4.000000,4.000000,4.000000,4.000000,,,,,,,,,,,,
1583521671.420833,108.000000,0.000000,4240.000000,4264.615234,4083.589844,3912.820557,4256.922852,450.000000,4.000000,,,,0.000000,4.000000,4.000000,4.000000,4.000000,4.000000,54.000000,0.000000,0.699295,0.187500,0.671875,0.156250,0.906264,-0.437507,-0.031250,-76.563667,-76.563667,38.281834
1583521671.428729,109.000000,0.000000,4242.563965,4264.615234,4087.179443,3917.435791,4260.000000,450.000000,4.000000,,,,0.000000,4.000000,4.000000,4.000000,4.000000,4.000000,,,,,,,,,,,,
1583521671.436426,110.000000,0.000000,4235.384766,4264.615234,4089.743652,3912.820557,4268.717773,450.000000,4.000000,,,,0.000000,4.000000,4.000000,4.000000,4.000000,4.000000,55.000000,0.000000,0.699295,0.187500,0.671875,0.156250,0.906264,-0.437507,-0.062501,-76.563667,-76.563667,38.281834
1583521671.444322,111.000000,0.000000,4231.794922,4266.666504,4093.846191,3915.384521,4268.717773,1023.000000,4.000000,,,,0.000000,4.000000,4.000000,4.000000,4.000000,4.000000,,,,,,,,,,,,
1583521671.452021,112.000000,0.000000,4236.922852,4270.769043,4096.410156,3926.153809,4266.666504,450.000000,4.000000,,,,0.000000,4.000000,4.000000,4.000000,4.000000,4.000000,56.000000,0.000000,0.699295,0.187500,0.671875,0.156250,0.906264,-0.468757,-0.062501,-76.563667,-76.563667,38.281834
1583521671.459918,113.000000,0.000000,4241.025879,4270.769043,4092.307617,3925.128174,4267.692383,450.000000,4.000000,,,,0.000000,4.000000,4.000000,4.000000,4.000000,4.000000,,,,,,,,,,,,
1583521671.467815,114.000000,0.000000,4249.230957,4270.769043,4084.615479,3912.820557,4273.846191,450.000000,4.000000,,,,0.000000,4.000000,4.000000,4.000000,4.000000,4.000000,57.000000,0.000000,0.699295,0.187500,0.671875,0.156250,0.906264,-0.468757,-0.062501,-76.563667,-76.563667,38.281834
1583521671.475712,115.000000,0.000000,4248.717773,4262.563965,4076.410156,3906.666748,4266.666504,1023.000000,4.000000,,,,0.000000,4.000000,4.000000,4.000000,4.000000,4.000000,,,,,,,,,,,,
1583521671.483609,116.000000,0.000000,4255.897461,4262.563965,4082.051270,3916.923096,4269.230957,450.000000,4.000000,,,,0.000000,4.000000,4.000000,4.000000,4.000000,4.000000,58.000000,0.000000,0.699295,0.187500,0.671875,0.156250,0.906264,-0.468757,-0.062501,-76.563667,-76.563667,38.281834
1583521671.491505,117.000000,0.000000,4264.102539,4268.717773,4087.179443,3922.564209,4276.410156,450.000000,4.000000,,,,0.000000,4.000000,4.000000,4.000000,4.000000,4.000000,,,,,,,,,,,,
1583521671.499202,118.000000,0.000000,4264.615234,4270.769043,4085.128174,3918.461426,4268.717773,450.000000,4.000000,,,,0.000000,4.000000,4.000000,4.000000,4.000000,4.000000,59.000000,0.000000,0.699295,0.187500,0.671875,0.156250,0.906264,-0.468757,-0.031250,-76.563667,-76.563667,38.281834
1583521671.506897,119.000000,0.000000,4262.051270,4266.666504,4075.897461,3900.000000,4264.615234,1023.000000,4.000000,,,,0.000000,4.000000,4.000000,4.000000,4.000000,4.000000,,,,,,,,,,,,
1583521671.514595,120.000000,0.000000,4262.051270,4264.615234,4076.410156,3900.000000,4272.820313,450.000000,4.000000,,,,0.000000,4.000000,4.000000,4.000000,4.000000,4.000000,60.000000,0.000000,0.699295,0.187500,0.671875,0.156250,0.906264,-0.437507,-0.062501,-76.563667,-76.563667,38.281834
1583521671.522492,121.000000,0.000000,4267.692383,4270.769043,4087.692383,3914.358887,4271.794922,450.000000,4.000000,,,,0.000000,4.000000,4.000000,4.000000,4.000000,4.000000,,,,,,,,,,,,
1583521671.530190,122.000000,0.000000,4265.128418,4268.717773,4093.846191,3908.205078,4256.410156,450.000000,4.000000,,,,0.000000,4.000000,4.000000,4.000000,4.000000,4.000000,61.000000,0.000000,0.699295,0.187500,0.671875,0.156250,0.906264,-0.437507,-0.031250,-76.563667,-76.563667,38.281834
1583521671.538086,123.000000,0.000000,4258.461426,4258.461426,4083.589844,3890.769287,4251.282227,1023.000000,4.000000,,,,0.000000,4.000000,4.000000,4.000000,4.000000,4.000000,,,,,,,,,,,,
1583521671.545784,124.000000,0.000000,4249.230957,4254.358887,4076.410156,3894.358887,4251.794922,450.000000,4.000000,,,,0.000000,4.000000,4.000000,4.000000,4.000000,4.000000,62.000000,0.000000,0.699295,0.187500,0.671875,0.156250,0.906264,-0.437507,-0.062501,-76.563667,-76.563667,38.281834
1583521671.553680,125.000000,0.000000,4245.641113,4262.563965,4079.487061,3898.974365,4257.436035,450.000000,4.000000,,,,0.000000,4.000000,4.000000,4.000000,4.000000,4.000000,,,,,,,,,,,,
1583521671.561379,126.000000,0.000000,4235.384766,4260.512695,4083.076904,3886.153809,4249.743652,450.000000,4.000000,,,,0.000000,4.000000,4.000000,4.000000,4.000000,4.000000,63.000000,0.000000,0.699295,0.187500,0.671875,0.156250,0.906264,-0.468757,-0.062501,-76.563667,-76.563667,38.281834
1583521671.569276,127.000000,0.000000,4229.743652,4262.563965,4083.076904,3873.846191,4243.589844,243.000000,4.000000,,,,0.000000,4.000000,4.000000,4.000000,4.000000,4.000000,,,,,,,,,,,,
1583521671.577175,0.000000,0.000000,4218.974121,4264.615234,4079.487061,3873.333252,4240.512695,450.000000,4.000000,,,,0.000000,4.000000,4.000000,4.000000,4.000000,4.000000,0.000000,0.000000,0.699295,0.187500,0.671875,0.156250,0.906264,-0.437507,-0.062501,-76.563667,-76.563667,38.281834
1583521671.585072,1.000000,0.000000,4208.205078,4266.666504,4082.564209,3887.179443,4243.077148,450.000000,4.000000,,,,0.000000,4.000000,4.000000,4.000000,4.000000,4.000000,,,,,,,,,,,,
1583521671.592969,2.000000,0.000000,4200.512695,4262.563965,4090.769287,3900.512939,4244.102539,1023.000000,4.000000,,,,0.000000,4.000000,4.000000,4.000000,4.000000,4.000000,1.000000,0.000000,0.699295,0.187500,0.671875,0.156250,0.906264,-0.468757,-0.031250,-76.563667,-76.563667,38.281834
1583521671.600865,3.000000,0.000000,4201.538574,4264.615234,4095.384521,3902.564209,4245.641113,450.000000,4.000000,,,,0.000000,4.000000,4.000000,4.000000,4.000000,4.000000,,,,,,,,,,,,
1583521671.608562,4.000000,0.000000,4203.589844,4260.512695,4086.666748,3892.820557,4241.025879,1023.000000,4.000000,,,,0.000000,4.000000,4.000000,4.000000,4.000000,4.000000,2.000000,0.000000,0.699295,0.187500,0.671875,0.156250,0.906264,-0.468757,-0.062501,-76.563667,-76.563667,38.281834
1583521671.616257,5.000000,0.000000,4205.641113,4258.461426,4090.256348,3893.846191,4238.461426,450.000000,4.000000,,,,0.000000,4.000000,4.000000,4.000000,4.000000,4.000000,,,,,,,,,,,,
1583521671.623955,6.000000,0.000000,4206.666504,4262.563965,4097.948730,3892.820557,4238.974121,1023.000000,4.000000,,,,0.000000,4.000000,4.000000,4.000000,4.000000,4.000000,3.000000,0.000000,0.699295,0.187500,0.671875,0.156250,0.906264,-0.437507,-0.031250,-76.563667,-76.563667,38.281834
1583521671.631851,7.000000,0.000000,4214.871582,4268.717773,4101.538574,3887.179443,4236.922852,450.000000,4.000000,,,,0.000000,4.000000,4.000000,4.000000,4.000000,4.000000,,,,,,,,,,,,
1583521671.639548,8.000000,0.000000,4222.051270,4274.871582,4100.512695,3890.769287,4239.487305,450.000000,4.000000,,,,0.000000,4.000000,4.000000,4.000000,4.000000,4.000000,4.000000,0.000000,0.699295,0.187500,0.671875,0.156250,0.906264,-0.437507,-0.062501,-76.563667,-76.563667,38.281834
1583521671.647444,9.000000,0.000000,4220.000000,4276.922852,4098.974121,3902.564209,4254.871582,1023.000000,4.000000,,,,0.000000,4.000000,4.000000,4.000000,4.000000,4.000000,,,,,,,,,,,,
1583521671.655142,10.000000,0.000000,4221.025879,4276.922852,4100.000000,3897.435791,4272.307617,450.000000,4.000000,,,,0.000000,4.000000,4.000000,4.000000,4.000000,4.000000,5.000000,0.000000,0.699295,0.187500,0.671875,0.156250,0.906264,-0.437507,-0.031250,-76.563667,-76.563667,38.281834
1583521671.663039,11.000000,0.000000,4209.230957,4272.820313,4111.282227,3890.256348,4254.871582,1023.000000,4.000000,,,,0.000000,4.000000,4.000000,4.000000,4.000000,4.000000,,,,,,,,,,,,
1583521671.670937,12.000000,0.000000,4204.615234,4281.025879,4119.487305,3898.974365,4249.743652,450.000000,4.000000,,,,0.000000,4.000000,4.000000,4.000000,4.000000,4.000000,6.000000,0.000000,0.699295,0.187500,0.671875,0.156250,0.906264,-0.437507,-0.031250,-76.563667,-76.563667,38.281834
1583521671.678834,13.000000,0.000000,4214.871582,4276.922852,4109.230957,3903.076904,4271.282227,450.000000,4.000000,,,,0.000000,4.000000,4.000000,4.000000,4.000000,4.000000,,,,,,,,,,,,
1583521671.686731,14.000000,0.000000,4222.563965,4268.717773,4098.461426,3894.358887,4285.641113,450.000000,4.000000,,,,0.000000,4.000000,4.000000,4.000000,4.000000,4.000000,7.000000,0.000000,0.699295,0.187500,0.671875,0.156250,0.906264,-0.468757,-0.031250,-76.563667,-76.563667,38.281834
1583521671.694428,15.000000,0.000000,4212.820313,4266.666504,4098.461426,3897.435791,4281.025879,1023.000000,4.000000,,,,0.000000,4.000000,4.000000,4.000000,4.000000,4.000000,,,,,,,,,,,,
1583521671.702124,16.000000,0.000000,4213.333496,4281.025879,4105.641113,3908.718018,4287.179688,0.000000,4.000000,,,,0.000000,4.000000,4.000000,4.000000,4.000000,4.000000,8.000000,0.000000,0.699295,0.187500,0.671875,0.156250,0.906264,-0.437507,-0.031250,-76.563667,-76.563667,38.281834
1583521671.709820,17.000000,0.000000,4208.205078,4283.077148,4104.102539,3896.923096,4277.948730,0.000000,4.000000,,,,0.000000,4.000000,4.000000,4.000000,4.000000,4.000000,,,,,,,,,,,,
1583521671.717517,18.000000,0.000000,4197.436035,4272.820313,4095.897461,3889.743652,4267.692383,0.000000,4.000000,,,,0.000000,4.000000,4.000000,4.000000,4.000000,4.000000,9.000000,0.000000,0.699295,0.187500,0.671875,0.156250,0.906264,-0.437507,-0.031250,-76.563667,-76.563667,38.281834
1583521671.725213,19.000000,0.000000,4189.743652,4262.563965,4088.718018,3898.461426,4269.230957,0.000000,4.000000,,,,0.000000,4.000000,4.000000,4.000000,4.000000,4.000000,,,,,,,,,,,,
1583521671.732911,20.000000,0.000000,4186.666504,4272.820313,4095.897461,3903.589844,4264.102539,0.000000,4.000000,,,,0.000000,4.000000,4.000000,4.000000,4.000000,4.000000,10.000000,0.000000,0.699295,0.187500,0.671875,0.156250,0.906264,-0.437507,-0.031250,-76.563667,-76.563667,38.281834
1583521671.740808,21.000000,0.000000,4189.743652,4281.025879,4103.589844,3907.179443,4256.410156,0.000000,4.000000,,,,0.000000,4.000000,4.000000,4.000000,4.000000,4.000000,,,,,,,,,,,,
1583521671.748505,22.000000,0.000000,4207.692383,4276.922852,4103.077148,3919.487061,4258.974121,0.000000,4.000000,,,,0.000000,4.000000,4.000000,4.000000,4.000000,4.000000,11.000000,0.000000,0.699295,0.187500,0.671875,0.156250,0.906264,-0.437507,-0.031250,-76.563667,-76.563667,38.281834
1583521671.756402,23.000000,0.000000,4219.487305,4278.974121,4094.358887,3908.718018,4262.051270,0.000000,4.000000,,,,0.000000,4.000000,4.000000,4.000000,4.000000,4.000000,,,,,,,,,,,,
1583521671.764099,24.000000,0.000000,4213.846191,4278.974121,4091.281982,3902.051270,4260.512695,0.000000,4.000000,,,,0.000000,4.000000,4.000000,4.000000,4.000000,4.000000,12.000000,0.000000,0.699295,0.187500,0.671875,0.156250,0.906264,-0.468757,-0.062501,-76.563667,-76.563667,38.281834
1583521671.771996,25.000000,0.000000,4214.871582,4276.922852,4091.794922,3914.871826,4264.102539,0.000000,4.000000,,,,0.000000,4.000000,4.000000,4.000000,4.000000,4.000000,,,,,,,,,,,,
1583521671.779694,26.000000,0.000000,4218.974121,4276.922852,4093.846191,3917.435791,4269.743652,0.000000,4.000000,,,,0.000000,4.000000,4.000000,4.000000,4.000000,4.000000,13.000000,0.000000,0.699295,0.187500,0.671875,0.156250,0.906264,-0.468757,-0.062501,-76.563667,-76.563667,38.281834
1583521671.787592,27.000000,0.000000,4223.589844,4281.025879,4095.384521,3910.769287,4270.256348,0.000000,4.000000,,,,0.000000,4.000000,4.000000,4.000000,4.000000,4.000000,,,,,,,,,,,,
1583521671.795490,28.000000,0.000000,4220.512695,4274.871582,4092.820557,3921.538574,4258.974121,0.000000,4.000000,,,,0.000000,4.000000,4.000000,4.000000,4.000000,4.000000,14.000000,0.000000,0.699295,0.187500,0.671875,0.156250,0.906264,-0.437507,-0.062501,-76.563667,-76.563667,38.281834
1583521671.803387,29.000000,0.000000,4215.897461,4270.769043,4088.205078,3925.128174,4258.974121,0.000000,4.000000,,,,0.000000,4.000000,4.000000,4.000000,4.000000,4.000000,,,,,,,,,,,,
1583521671.811284,30.000000,0.000000,4203.589844,4260.512695,4084.615479,3918.974365,4257.436035,0.000000,4.000000,,,,0.000000,4.000000,4.000000,4.000000,4.000000,4.000000,15.000000,0.000000,0.699295,0.187500,0.671875,0.156250,0.906264,-0.437507,-0.062501,-76.563667,-76.563667,38.281834
1583521671.819180,31.000000,0.000000,4213.333496,4262.563965,4089.743652,3920.512939,4260.512695,0.000000,4.000000,,,,0.000000,4.000000,4.000000,4.000000,4.000000,4.000000,,,,,,,,,,,,
1583521671.826878,32.000000,0.000000,4227.692383,4274.871582,4098.974121,3919.487061,4268.717773,0.000000,4.000000,,,,0.000000,4.000000,4.000000,4.000000,4.000000,4.000000,16.000000,0.000000,0.699295,0.187500,0.671875,0.156250,0.906264,-0.468757,-0.031250,-76.563667,-76.563667,38.281834
1583521671.834774,33.000000,0.000000,4228.205078,4274.871582,4107.179688,3922.564209,4274.871582,0.000000,4.000000,,,,0.000000,4.000000,4.000000,4.000000,4.000000,4.000000,,,,,,,,,,,,
1583521671.842471,34.000000,0.000000,4230.256348,4268.717773,4114.871582,3929.230713,4271.794922,0.000000,4.000000,,,,0.000000,4.000000,4.000000,4.000000,4.000000,4.000000,17.000000,0.000000,0.699295,0.187500,0.671875,0.156250,0.906264,-0.468757,-0.031250,-76.563667,-76.563667,38.281834
1583521671.850367,35.000000,0.000000,4245.641113,4283.077148,4127.692383,3938.461426,4279.487305,0.000000,4.000000,,,,0.000000,4.000000,4.000000,4.000000,4.000000,4.000000,,,,,,,,,,,,
1583521671.858064,36.000000,0.000000,4243.589844,4285.128418,4125.641113,3930.256348,4281.538574,0.000000,4.000000,,,,0.000000,4.000000,4.000000,4.000000,4.000000,4.000000,18.000000,0.000000,0.699295,0.187500,0.671875,0.156250,0.875013,-0.468757,-0.062501,-76.563667,-76.563667,38.281834
1583521671.865960,37.000000,0.000000,4237.436035,4278.974121,4124.102539,3924.615479,4276.410156,0.000000,4.000000,,,,0.000000,4.000000,4.000000,4.000000,4.000000,4.000000,,,,,,,,,,,,
1583521671.873658,38.000000,0.000000,4243.589844,4287.179688,4129.230957,3928.718018,4277.436035,0.000000,4.000000,,,,0.000000,4.000000,4.000000,4.000000,4.000000,4.000000,19.000000,0.000000,0.699295,0.187500,0.671875,0.156250,0.906264,-0.468757,-0.031250,-76.563667,-76.563667,38.281834
1583521671.881555,39.000000,0.000000,4228.205078,4285.128418,4123.077148,3925.641113,4261.025879,0.000000,4.000000,,,,0.000000,4.000000,4.000000,4.000000,4.000000,4.000000,,,,,,,,,,,,
1583521671.889453,40.000000,0.000000,4209.743652,4278.974121,4114.358887,3915.384521,4248.205078,0.000000,4.000000,,,,0.000000,4.000000,4.000000,4.000000,4.000000,4.000000,20.000000,0.000000,0.699295,0.187500,0.671875,0.156250,0.906264,-0.468757,-0.031250,-76.563667,-76.563667,38.281834
1583521671.897349,41.000000,0.000000,4218.974121,4283.077148,4121.538574,3921.025635,4258.974121,0.000000,4.000000,,,,0.000000,4.000000,4.000000,4.000000,4.000000,4.000000,,,,,,,,,,,,
1583521671.905046,42.000000,0.000000,4218.974121,4281.025879,4121.025879,3922.564209,4247.692383,0.000000,4.000000,,,,0.000000,4.000000,4.000000,4.000000,4.000000,4.000000,21.000000,0.000000,0.699295,0.187500,0.671875,0.156250,0.906264,-0.468757,-0.031250,-76.563667,-76.563667,38.281834
1583521671.912742,43.000000,0.000000,4202.051270,4268.717773,4110.256348,3914.358887,4220.000000,0.000000,4.000000,,,,0.000000,4.000000,4.000000,4.000000,4.000000,4.000000,,,,,,,,,,,,
1583521671.920439,44.000000,0.000000,4222.051270,4268.717773,4102.051270,3917.435791,4242.563965,0.000000,4.000000,,,,0.000000,4.000000,4.000000,4.000000,4.000000,4.000000,22.000000,0.000000,0.699295,0.187500,0.671875,0.156250,0.875013,-0.468757,-0.031250,-76.563667,-76.563667,38.281834
1583521671.928135,45.000000,0.000000,4235.384766,4258.461426,4094.871826,3924.615479,4263.077148,0.000000,4.000000,,,,0.000000,4.000000,4.000000,4.000000,4.000000,4.000000,,,,,,,,,,,,
1583521671.935833,46.000000,0.000000,4216.922852,4256.410156,4099.487305,3922.051270,4244.102539,0.000000,4.000000,,,,0.000000,4.000000,4.000000,4.000000,4.000000,4.000000,23.000000,0.000000,0.699295,0.187500,0.671875,0.156250,0.906264,-0.437507,-0.031250,-76.563667,-76.563667,38.281834
1583521671.943729,47.000000,0.000000,4201.538574,4260.512695,4105.641113,3921.025635,4224.102539,0.000000,4.000000,,,,0.000000,4.000000,4.000000,4.000000,4.000000,4.000000,,,,,,,,,,,,
1583521671.951427,48.000000,0.000000,4207.692383,4258.461426,4103.077148,3922.564209,4229.230957,0.000000,4.000000,,,,0.000000,4.000000,4.000000,4.000000,4.000000,4.000000,24.000000,0.000000,0.699295,0.187500,0.671875,0.156250,0.906264,-0.468757,-0.031250,-76.563667,-76.563667,38.281834
1583521671.959323,49.000000,0.000000,4208.205078,4258.461426,4096.922852,3914.871826,4231.794922,0.000000,4.000000,,,,0.000000,4.000000,4.000000,4.000000,4.000000,4.000000,,,,,,,,,,,,
1583521671.967021,50.000000,0.000000,4203.589844,4270.769043,4099.487305,3917.948730,4228.717773,0.000000,4.000000,,,,0.000000,4.000000,4.000000,4.000000,4.000000,4.000000,25.000000,0.000000,0.699295,0.187500,0.671875,0.156250,0.906264,-0.437507,-0.031250,-76.563667,-76.563667,38.281834
1583521671.974917,51.000000,0.000000,4193.846191,4272.820313,4100.512695,3926.666748,4215.384766,0.000000,4.000000,,,,0.000000,4.000000,4.000000,4.000000,4.000000,4.000000,,,,,,,,,,,,
1583521671.982616,52.000000,0.000000,4194.871582,4266.666504,4103.077148,3931.794922,4209.743652,0.000000,4.000000,,,,0.000000,4.000000,4.000000,4.000000,4.000000,4.000000,26.000000,0.000000,0.699295,0.187500,0.671875,0.156250,0.906264,-0.437507,-0.031250,-76.563667,-76.563667,38.281834
1583521671.990513,53.000000,0.000000,4201.025879,4264.615234,4098.974121,3925.128174,4215.384766,0.000000,4.000000,,,,0.000000,4.000000,4.000000,4.000000,4.000000,4.000000,,,,,,,,,,,,
1583521671.998410,54.000000,0.000000,4192.307617,4264.615234,4097.436035,3915.897461,4215.897461,0.000000,4.000000,,,,0.000000,4.000000,4.000000,4.000000,4.000000,4.000000,27.000000,0.000000,0.699295,0.187500,0.671875,0.156250,0.906264,-0.437507,-0.031250,-76.563667,-76.563667,38.281834
1583521672.006306,55.000000,0.000000,4178.974121,4254.358887,4095.897461,3909.743652,4209.743652,0.000000,4.000000,,,,0.000000,4.000000,4.000000,4.000000,4.000000,4.000000,,,,,,,,,,,,
1583521672.014004,56.000000,0.000000,4179.487305,4246.153809,4092.307617,3915.384521,4198.461426,0.000000,4.000000,,,,0.000000,4.000000,4.000000,4.000000,4.000000,4.000000,28.000000,0.000000,0.699295,0.187500,0.671875,0.156250,0.875013,-0.437507,-0.031250,-76.563667,-76.563667,38.281834
1583521672.021900,57.000000,0.000000,4192.307617,4256.410156,4090.769287,3920.512939,4200.512695,0.000000,4.000000,,,,0.000000,4.000000,4.000000,4.000000,4.000000,4.000000,,,,,,,,,,,,
1583521672.029598,58.000000,0.000000,4196.922852,4264.615234,4096.410156,3922.051270,4207.692383,0.000000,4.000000,,,,0.000000,4.000000,4.000000,4.000000,4.000000,4.000000,29.000000,0.000000,0.699295,0.187500,0.671875,0.156250,0.906264,-0.468757,-0.031250,-76.563667,-76.563667,38.281834
1583521672.037495,59.000000,0.000000,4205.128418,4266.666504,4098.974121,3926.666748,4207.692383,0.000000,4.000000,,,,0.000000,4.000000,4.000000,4.000000,4.000000,4.000000,,,,,,,,,,,,
1583521672.045393,60.000000,0.000000,4214.358887,4260.512695,4096.410156,3930.256348,4202.051270,0.000000,4.000000,,,,0.000000,4.000000,4.000000,4.000000,4.000000,4.000000,30.000000,0.000000,0.699295,0.187500,0.671875,0.156250,0.906264,-0.468757,-0.031250,-76.563667,-76.563667,38.281834
1583521672.053290,61.000000,0.000000,4223.589844,4258.461426,4098.974121,3922.564209,4212.307617,0.000000,4.000000,,,,0.000000,4.000000,4.000000,4.000000,4.000000,4.000000,,,,,,,,,,,,
1583521672.061188,62.000000,0.000000,4217.948730,4258.461426,4094.358887,3909.743652,4213.333496,0.000000,4.000000,,,,0.000000,4.000000,4.000000,4.000000,4.000000,4.000000,31.000000,0.000000,0.699295,0.187500,0.671875,0.156250,0.906264,-0.468757,-0.031250,-76.563667,-76.563667,38.281834
1583521672.069085,63.000000,0.000000,4216.922852,4266.666504,4083.589844,3911.281982,4207.179688,0.000000,4.000000,,,,0.000000,4.000000,4.000000,4.000000,4.000000,4.000000,,,,,,,,,,,,
1583521672.076982,64.000000,0.000000,4214.871582,4254.358887,4075.897461,3917.435791,4193.333496,450.000000,4.000000,,,,0.000000,4.000000,4.000000,4.000000,4.000000,4.000000,32.000000,0.000000,0.699295,0.187500,0.671875,0.156250,0.906264,-0.468757,-0.031250,-76.563667,-76.563667,38.281834
1583521672.084678,65.000000,0.000000,4219.487305,4246.153809,4080.000000,3918.461426,4193.333496,450.000000,4.000000,,,,0.000000,4.000000,4.000000,4.000000,4.000000,4.000000,,,,,,,,,,,,
1583521672.092375,66.000000,0.000000,4230.769043,4252.307617,4083.589844,3915.897461,4208.717773,1023.000000,4.000000,,,,0.000000,4.000000,4.000000,4.000000,4.000000,4.000000,33.000000,0.000000,0.699295,0.187500,0.671875,0.156250,0.906264,-0.437507,-0.062501,-76.563667,-76.563667,38.281834
1583521672.100272,67.000000,0.000000,4235.897461,4260.512695,4083.076904,3925.641113,4218.461426,450.000000,4.000000,,,,0.000000,4.000000,4.000000,4.000000,4.000000,4.000000,,,,,,,,,,,,
1583521672.107969,68.000000,0.000000,4231.794922,4262.563965,4080.000000,3924.615479,4209.743652,1023.000000,4.000000,,,,0.000000,4.000000,4.000000,4.000000,4.000000,4.000000,34.000000,0.000000,0.699295,0.187500,0.671875,0.156250,0.906264,-0.468757,-0.031250,-76.563667,-76.563667,38.281834
1583521672.115665,69.000000,0.000000,4233.846191,4260.512695,4081.538574,3915.384521,4198.974121,450.000000,4.000000,,,,0.000000,4.000000,4.000000,4.000000,4.000000,4.000000,,,,,,,,,,,,
1583521672.123362,70.000000,0.000000,4242.563965,4262.563965,4085.128174,3920.000000,4201.025879,1023.000000,4.000000,,,,0.000000,4.000000,4.000000,4.000000,4.000000,4.000000,35.000000,0.000000,0.699295,0.187500,0.671875,0.156250,0.875013,-0.468757,-0.031250,-76.563667,-76.563667,38.281834
1583521672.131057,71.000000,0.000000,4245.128418,4266.666504,4089.743652,3927.692383,4211.282227,450.000000,4.000000,,,,0.000000,4.000000,4.000000,4.000000,4.000000,4.000000,,,,,,,,,,,,
1583521672.138755,72.000000,0.000000,4252.820313,4266.666504,4088.205078,3909.743652,4220.512695,450.000000,4.000000,,,,0.000000,4.000000,4.000000,4.000000,4.000000,4.000000,36.000000,0.000000,0.713979,0.187500,0.656250,0.156250,0.875013,-0.468757,-0.062501,-76.563667,-76.563667,38.281834
1583521672.146651,73.000000,0.000000,4255.384766,4256.410156,4087.179443,3896.923096,4205.128418,1023.000000,4.000000,,,,0.000000,4.000000,4.000000,4.000000,4.000000,4.000000,,,,,,,,,,,,
1583521672.154349,74.000000,0.000000,4251.794922,4260.512695,4089.743652,3908.718018,4189.230957,450.000000,4.000000,,,,0.000000,4.000000,4.000000,4.000000,4.000000,4.000000,37.000000,0.000000,0.713979,0.187500,0.656250,0.156250,0.906264,-0.437507,-0.062501,-76.563667,-76.563667,38.281834
1583521672.162245,75.000000,0.000000,4246.153809,4264.615234,4090.769287,3914.871826,4194.358887,1023.000000,4.000000,,,,0.000000,4.000000,4.000000,4.000000,4.000000,4.000000,,,,,,,,,,,,
1583521672.169943,76.000000,0.000000,4244.102539,4258.461426,4075.384521,3907.692383,4204.102539,450.000000,4.000000,,,,0.000000,4.000000,4.000000,4.000000,4.000000,4.000000,38.000000,0.000000,0.713979,0.187500,0.656250,0.156250,0.906264,-0.468757,-0.031250,-76.563667,-76.563667,38.281834
1583521672.177839,77.000000,0.000000,4233.333496,4246.153809,4055.384521,3914.871826,4193.846191,450.000000,4.000000,,,,0.000000,4.000000,4.000000,4.000000,4.000000,4.000000,,,,,,,,,,,,
1583521672.185537,78.000000,0.000000,4236.410156,4250.256348,4056.923096,3925.641113,4192.820313,450.000000,4.000000,,,,0.000000,4.000000,4.000000,4.000000,4.000000,4.000000,39.000000,0.000000,0.713979,0.187500,0.656250,0.156250,0.875013,-0.468757,-0.062501,-76.563667,-76.563667,38.281834
1583521672.193433,79.000000,0.000000,4248.717773,4252.307617,4068.205078,3917.435791,4196.922852,1023.000000,4.000000,,,,0.000000,4.000000,4.000000,4.000000,4.000000,4.000000,,,,,,,,,,,,
1583521672.201130,80.000000,0.000000,4247.692383,4250.256348,4070.256348,3906.666748,4194.358887,450.000000,4.000000,,,,0.000000,4.000000,4.000000,4.000000,4.000000,4.000000,40.000000,0.000000,0.713979,0.187500,0.656250,0.156250,0.906264,-0.468757,-0.031250,-76.563667,-76.563667,38.281834
1583521672.209026,81.000000,0.000000,4223.589844,4233.846191,4054.871826,3903.076904,4181.025879,450.000000,4.000000,,,,0.000000,4.000000,4.000000,4.000000,4.000000,4.000000,,,,,,,,,,,,
1583521672.216724,82.000000,0.000000,4221.025879,4233.846191,4057.948730,3908.718018,4175.384766,450.000000,4.000000,,,,0.000000,4.000000,4.000000,4.000000,4.000000,4.000000,41.000000,0.000000,0.713979,0.187500,0.656250,0.156250,0.906264,-0.468757,-0.031250,-76.563667,-76.563667,38.281834
1583521672.224620,83.000000,0.000000,4241.538574,4254.358887,4075.384521,3908.205078,4186.153809,1023.000000,4.000000,,,,0.000000,4.000000,4.000000,4.000000,4.000000,4.000000,,,,,,,,,,,,
1583521672.232317,84.000000,0.000000,4252.820313,4260.512695,4083.076904,3914.871826,4197.948730,450.000000,4.000000,,,,0.000000,4.000000,4.000000,4.000000,4.000000,4.000000,42.000000,0.000000,0.699295,0.187500,0.671875,0.156250,0.906264,-0.468757,-0.062501,-76.563667,-76.563667,38.281834
1583521672.240213,85.000000,0.000000,4252.820313,4256.410156,4082.051270,3930.256348,4191.794922,450.000000,4.000000,,,,0.000000,4.000000,4.000000,4.000000,4.000000,4.000000,,,,,,,,,,,,
1583521672.247911,86.000000,0.000000,4246.153809,4254.358887,4083.076904,3930.256348,4178.461426,450.000000,4.000000,,,,0.000000,4.000000,4.000000,4.000000,4.000000,4.000000,43.000000,0.000000,0.699295,0.187500,0.671875,0.156250,0.906264,-0.468757,-0.031250,-76.563667,-76.563667,38.281834
1583521672.255808,87.000000,0.000000,4231.282227,4246.153809,4075.897461,3912.307617,4171.282227,1023.000000,4.000000,,,,0.000000,4.000000,4.000000,4.000000,4.000000,4.000000,,,,,,,,,,,,
1583521672.263706,88.000000,0.000000,4228.717773,4244.102539,4070.256348,3915.897461,4167.179688,450.000000,4.000000,,,,0.000000,4.000000,4.000000,4.000000,4.000000,4.000000,44.000000,0.000000,0.699295,0.187500,0.671875,0.156250,0.906264,-0.468757,-0.031250,-76.563667,-76.563667,38.281834
1583521672.271603,89.000000,0.000000,4248.205078,4256.410156,4073.846191,3929.230713,4182.563965,450.000000,4.000000,,,,0.000000,4.000000,4.000000,4.000000,4.000000,4.000000,,,,,,,,,,,,
1583521672.279501,90.000000,0.000000,4248.205078,4250.256348,4078.461426,3928.205078,4193.846191,450.000000,4.000000,,,,0.000000,4.000000,4.000000,4.000000,4.000000,4.000000,45.000000,0.000000,0.699295,0.187500,0.671875,0.156250,0.906264,-0.437507,-0.031250,-76.563667,-76.563667,38.281834
1583521672.287397,91.000000,0.000000,4241.538574,4250.256348,4080.000000,3918.461426,4189.230957,1023.000000,4.000000,,,,0.000000,4.000000,4.000000,4.000000,4.000000,4.000000,,,,,,,,,,,,
1583521672.295095,92.000000,0.000000,4238.461426,4266.666504,4082.564209,3914.358887,4176.922852,450.000000,4.000000,,,,0.000000,4.000000,4.000000,4.000000,4.000000,4.000000,46.000000,0.000000,0.699295,0.187500,0.671875,0.156250,0.875013,-0.437507,-0.031250,-76.563667,-76.563667,38.281834
1583521672.302992,93.000000,0.000000,4240.000000,4272.820313,4089.743652,3919.487061,4176.922852,450.000000,4.000000,,,,0.000000,4.000000,4.000000,4.000000,4.000000,4.000000,,,,,,,,,,,,
1583521672.310689,94.000000,0.000000,4231.282227,4258.461426,4088.718018,3921.025635,4173.846191,450.000000,4.000000,,,,0.000000,4.000000,4.000000,4.000000,4.000000,4.000000,47.000000,0.000000,0.699295,0.187500,0.671875,0.156250,0.906264,-0.437507,-0.031250,-76.563667,-76.563667,38.281834
1583521672.318385,95.000000,0.000000,4233.333496,4258.461426,4078.974365,3922.051270,4181.025879,1023.000000,4.000000,,,,0.000000,4.000000,4.000000,4.000000,4.000000,4.000000,,,,,,,,,,,,
1583521672.326081,96.000000,0.000000,4240.512695,4266.666504,4071.794922,3925.641113,4193.333496,450.000000,4.000000,,,,0.000000,4.000000,4.000000,4.000000,4.000000,4.000000,48.000000,0.000000,0.699295,0.187500,0.671875,0.156250,0.906264,-0.468757,-0.031250,-76.563667,-76.563667,38.281834
1583521672.333777,97.000000,0.000000,4242.051270,4262.563965,4080.000000,3926.666748,4193.846191,450.000000,4.000000,,,,0.000000,4.000000,4.000000,4.000000,4.000000,4.000000,,,,,,,,,,,,
1583521672.341475,98.000000,0.000000,4233.333496,4246.153809,4077.435791,3912.820557,4182.563965,450.000000,4.000000,,,,0.000000,4.000000,4.000000,4.000000,4.000000,4.000000,49.000000,0.000000,0.699295,0.187500,0.671875,0.156250,0.906264,-0.468757,-0.062501,-76.563667,-76.563667,38.281834
1583521672.349371,99.000000,0.000000,4231.794922,4240.000000,4067.692383,3907.692383,4183.589844,1023.000000,4.000000,,,,0.000000,4.000000,4.000000,4.000000,4.000000,4.000000,,,,,,,,,,,,
1583521672.357068,100.000000,0.000000,4234.871582,4244.102539,4068.205078,3912.820557,4186.666504,450.000000,4.000000,,,,0.000000,4.000000,4.000000,4.000000,4.000000,4.000000,50.000000,0.000000,0.699295,0.187500,0.671875,0.156250,0.906264,-0.468757,-0.062501,-76.563667,-76.563667,38.281834
1583521672.364763,101.000000,0.000000,4235.384766,4252.307617,4082.564209,3915.897461,4178.974121,450.000000,4.000000,,,,0.000000,4.000000,4.000000,4.000000,4.000000,4.000000,,,,,,,,,,,,
1583521672.372461,102.000000,0.000000,4232.307617,4254.358887,4080.512939,3903.589844,4176.410156,450.000000,4.000000,,,,0.000000,4.000000,4.000000,4.000000,4.000000,4.000000,51.000000,0.000000,0.699295,0.187500,0.671875,0.156250,0.875013,-0.468757,-0.062501,-76.563667,-76.563667,38.281834
1583521672.380357,103.000000,0.000000,4221.538574,4248.205078,4068.718018,3902.051270,4171.282227,1023.000000,4.000000,,,,0.000000,4.000000,4.000000,4.000000,4.000000,4.000000,,,,,,,,,,,,
1583521672.388055,104.000000,0.000000,4221.538574,4254.358887,4072.820557,3907.692383,4164.615234,450.000000,4.000000,,,,0.000000,4.000000,4.000000,4.000000,4.000000,4.000000,52.000000,0.000000,0.699295,0.187500,0.671875,0.156250,0.906264,-0.437507,-0.031250,-76.563667,-76.563667,38.281834
1583521672.395951,105.000000,0.000000,4227.179688,4254.358887,4081.025635,3904.615479,4164.615234,450.000000,4.000000,,,,0.000000,4.000000,4.000000,4.000000,4.000000,4.000000,,,,,,,,,,,,
1583521672.403648,106.000000,0.000000,4236.410156,4258.461426,4084.615479,3902.051270,4180.000000,450.000000,4.000000,,,,0.000000,4.000000,4.000000,4.000000,4.000000,4.000000,53.000000,0.000000,0.699295,0.187500,0.671875,0.156250,0.906264,-0.437507,-0.031250,-76.563667,-76.563667,38.281834
1583521672.411544,107.000000,0.000000,4240.512695,4262.563965,4084.615479,3906.153809,4190.256348,1023.000000,4.000000,,,,0.000000,4.000000,4.000000,4.000000,4.000000,4.000000,,,,,,,,,,,,
1583521672.419242,108.000000,0.000000,4239.487305,4268.717773,4086.666748,3913.846191,4200.000000,450.000000,4.000000,,,,0.000000,4.000000,4.000000,4.000000,4.000000,4.000000,54.000000,0.000000,0.699295,0.187500,0.671875,0.156250,0.906264,-0.468757,-0.062501,-76.563667,-76.563667,38.281834
1583521672.427138,109.000000,0.000000,4229.743652,4264.615234,4088.205078,3918.461426,4194.358887,450.000000,4.000000,,,,0.000000,4.000000,4.000000,4.000000,4.000000,4.000000,,,,,,,,,,,,
1583521672.434835,110.000000,0.000000,4231.794922,4266.666504,4090.769287,3909.230713,4185.641113,450.000000,4.000000,,,,0.000000,4.000000,4.000000,4.000000,4.000000,4.000000,55.000000,0.000000,0.713979,0.187500,0.656250,0.156250,0.906264,-0.437507,-0.062501,-76.563667,-76.563667,38.281834
1583521672.442731,111.000000,0.000000,4233.333496,4266.666504,4093.333252,3903.076904,4182.563965,1023.000000,4.000000,,,,0.000000,4.000000,4.000000,4.000000,4.000000,4.000000,,,,,,,,,,,,
1583521672.450428,112.000000,0.000000,4229.230957,4264.615234,4093.333252,3922.564209,4191.794922,450.000000,4.000000,,,,0.000000,4.000000,4.000000,4.000000,4.000000,4.000000,56.000000,0.000000,0.713979,0.187500,0.656250,0.156250,0.906264,-0.437507,-0.062501,-76.563667,-76.563667,38.281834
1583521672.458324,113.000000,0.000000,4218.461426,4260.512695,4082.564209,3926.153809,4194.358887,450.000000,4.000000,,,,0.000000,4.000000,4.000000,4.000000,4.000000,4.000000,,,,,,,,,,,,
1583521672.466022,114.000000,0.000000,4211.794922,4266.666504,4081.025635,3915.384521,4192.307617,450.000000,4.000000,,,,0.000000,4.000000,4.000000,4.000000,4.000000,4.000000,57.000000,0.000000,0.713979,0.187500,0.656250,0.156250,0.906264,-0.437507,-0.062501,-76.563667,-76.563667,38.281834
1583521672.473919,115.000000,0.000000,4214.871582,4268.717773,4090.256348,3918.461426,4195.897461,1023.000000,4.000000,,,,0.000000,4.000000,4.000000,4.000000,4.000000,4.000000,,,,,,,,,,,,
1583521672.481817,116.000000,0.000000,4215.897461,4260.512695,4084.102539,3927.179443,4195.384766,450.000000,4.000000,,,,0.000000,4.000000,4.000000,4.000000,4.000000,4.000000,58.000000,0.000000,0.713979,0.187500,0.656250,0.156250,0.906264,-0.437507,-0.062501,-76.563667,-76.563667,38.281834
1583521672.489713,117.000000,0.000000,4207.179688,4254.358887,4070.769287,3924.615479,4194.358887,450.000000,4.000000,,,,0.000000,4.000000,4.000000,4.000000,4.000000,4.000000,,,,,,,,,,,,
1583521672.497412,118.000000,0.000000,4205.128418,4260.512695,4083.589844,3931.281982,4202.051270,450.000000,4.000000,,,,0.000000,4.000000,4.000000,4.000000,4.000000,4.000000,59.000000,0.000000,0.699295,0.187500,0.671875,0.156250,0.906264,-0.468757,-0.062501,-76.563667,-76.563667,38.281834
1583521672.505310,119.000000,0.000000,4216.410156,4268.717773,4094.358887,3932.307617,4201.538574,1023.000000,4.000000,,,,0.000000,4.000000,4.000000,4.000000,4.000000,4.000000,,,,,,,,,,,,
1583521672.513207,120.000000,0.000000,4210.769043,4258.461426,4084.615479,3922.564209,4189.743652,450.000000,4.000000,,,,0.000000,4.000000,4.000000,4.000000,4.000000,4.000000,60.000000,0.000000,0.713979,0.187500,0.656250,0.156250,0.906264,-0.468757,-0.062501,-76.563667,-76.563667,38.281834
1583521672.521104,121.000000,0.000000,4208.717773,4244.102539,4077.948730,3921.025635,4196.410156,450.000000,4.000000,,,,0.000000,4.000000,4.000000,4.000000,4.000000,4.000000,,,,,,,,,,,,
1583521672.528801,122.000000,0.000000,4219.487305,4248.205078,4081.538574,3935.384521,4197.948730,450.000000,4.000000,,,,0.000000,4.000000,4.000000,4.000000,4.000000,4.000000,61.000000,0.000000,0.713979,0.187500,0.656250,0.156250,0.875013,-0.468757,-0.062501,-76.563667,-76.563667,38.281834
1583521672.536698,123.000000,0.000000,4225.128418,4262.563965,4081.538574,3942.051270,4190.769043,1023.000000,4.000000,,,,0.000000,4.000000,4.000000,4.000000,4.000000,4.000000,,,,,,,,,,,,
1583521672.544395,124.000000,0.000000,4214.871582,4250.256348,4080.512939,3936.410156,4184.615234,450.000000,4.000000,,,,0.000000,4.000000,4.000000,4.000000,4.000000,4.000000,62.000000,0.000000,0.713979,0.187500,0.656250,0.156250,0.906264,-0.468757,-0.031250,-76.563667,-76.563667,38.281834
1583521672.552292,125.000000,0.000000,4218.461426,4246.153809,4085.128174,3941.538574,4191.794922,450.000000,4.000000,,,,0.000000,4.000000,4.000000,4.000000,4.000000,4.000000,,,,,,,,,,,,
1583521672.559990,126.000000,0.000000,4220.000000,4252.307617,4081.025635,3946.153809,4190.769043,450.000000,4.000000,,,,0.000000,4.000000,4.000000,4.000000,4.000000,4.000000,63.000000,0.000000,0.713979,0.187500,0.656250,0.156250,0.906264,-0.468757,-0.062501,-76.563667,-76.563667,38.281834
1583521672.567886,127.000000,0.000000,4211.794922,4264.615234,4075.384521,3940.512939,4182.563965,243.000000,4.000000,,,,0.000000,4.000000,4.000000,4.000000,4.000000,4.000000,,,,,,,,,,,,
1583521672.575584,0.000000,0.000000,4202.563965,4260.512695,4067.692383,3933.333252,4173.846191,450.000000,4.000000,,,,0.000000,4.000000,4.000000,4.000000,4.000000,4.000000,0.000000,0.000000,0.713979,0.187500,0.656250,0.156250,0.875013,-0.468757,-0.031250,-76.563667,-76.563667,38.281834
1583521672.583480,1.000000,0.000000,4207.179688,4252.307617,4067.692383,3934.358887,4179.487305,450.000000,4.000000,,,,0.000000,4.000000,4.000000,4.000000,4.000000,4.000000,,,,,,,,,,,,
1583521672.591177,2.000000,0.000000,4214.358887,4252.307617,4078.461426,3928.718018,4186.666504,1023.000000,4.000000,,,,0.000000,4.000000,4.000000,4.000000,4.000000,4.000000,1.000000,0.000000,0.713979,0.187500,0.656250,0.156250,0.875013,-0.468757,-0.031250,-76.563667,-76.563667,38.281834
1583521672.599073,3.000000,0.000000,4212.307617,4260.512695,4090.769287,3932.820557,4180.000000,450.000000,4.000000,,,,0.000000,4.000000,4.000000,4.000000,4.000000,4.000000,,,,,,,,,,,,
1583521672.606771,4.000000,0.000000,4208.205078,4262.563965,4090.256348,3942.051270,4169.230957,1023.000000,4.000000,,,,0.000000,4.000000,4.000000,4.000000,4.000000,4.000000,2.000000,0.000000,0.713979,0.187500,0.656250,0.156250,0.906264,-0.468757,-0.031250,-76.563667,-76.563667,38.281834
1583521672.614668,5.000000,0.000000,4226.153809,4262.563965,4093.333252,3951.794922,4174.871582,450.000000,4.000000,,,,0.000000,4.000000,4.000000,4.000000,4.000000,4.000000,,,,,,,,,,,,
1583521672.622565,6.000000,0.000000,4257.436035,4270.769043,4096.922852,3954.871826,4200.000000,1023.000000,4.000000,,,,0.000000,4.000000,4.000000,4.000000,4.000000,4.000000,3.000000,0.000000,0.713979,0.187500,0.656250,0.156250,0.906264,-0.468757,-0.031250,-76.563667,-76.563667,38.281834
1583521672.630461,7.000000,0.000000,4254.871582,4274.871582,4096.410156,3957.948730,4204.615234,450.000000,4.000000,,,,0.000000,4.000000,4.000000,4.000000,4.000000,4.000000,,,,,,,,,,,,
1583521672.638158,8.000000,0.000000,4238.974121,4276.922852,4093.846191,3954.871826,4187.692383,450.000000,4.000000,,,,0.000000,4.000000,4.000000,4.000000,4.000000,4.000000,4.000000,0.000000,0.713979,0.187500,0.656250,0.156250,0.875013,-0.468757,-0.031250,-76.563667,-76.563667,38.281834
1583521672.646054,9.000000,0.000000,4229.743652,4266.666504,4083.076904,3938.461426,4172.307617,1023.000000,4.000000,,,,0.000000,4.000000,4.000000,4.000000,4.000000,4.000000,,,,,,,,,,,,
1583521672.653751,10.000000,0.000000,4225.641113,4262.563965,4073.333252,3926.153809,4176.410156,450.000000,4.000000,,,,0.000000,4.000000,4.000000,4.000000,4.000000,4.000000,5.000000,0.000000,0.713979,0.187500,0.656250,0.156250,0.906264,-0.468757,-0.031250,-76.563667,-76.563667,38.281834
1583521672.661647,11.000000,0.000000,4214.358887,4260.512695,4077.948730,3940.512939,4180.512695,1023.000000,4.000000,,,,0.000000,4.000000,4.000000,4.000000,4.000000,4.000000,,,,,,,,,,,,
1583521672.669345,12.000000,0.000000,4215.897461,4264.615234,4089.743652,3961.538574,4180.512695,450.000000,4.000000,,,,0.000000,4.000000,4.000000,4.000000,4.000000,4.000000,6.000000,0.000000,0.713979,0.187500,0.656250,0.156250,0.906264,-0.468757,-0.031250,-76.563667,-76.563667,38.281834
1583521672.677242,13.000000,0.000000,4220.000000,4260.512695,4091.281982,3954.871826,4167.692383,450.000000,4.000000,,,,0.000000,4.000000,4.000000,4.000000,4.000000,4.000000,,,,,,,,,,,,
1583521672.684940,14.000000,0.000000,4221.538574,4258.461426,4092.307617,3944.102539,4165.641113,450.000000,4.000000,,,,0.000000,4.000000,4.000000,4.000000,4.000000,4.000000,7.000000,0.000000,0.713979,0.187500,0.656250,0.156250,0.906264,-0.437507,-0.062501,-76.563667,-76.563667,38.281834
1583521672.692837,15.000000,0.000000,4214.871582,4258.461426,4088.718018,3946.666748,4168.717773,1023.000000,4.000000,,,,0.000000,4.000000,4.000000,4.000000,4.000000,4.000000,,,,,,,,,,,,
1583521672.700534,16.000000,0.000000,4214.358887,4264.615234,4084.615479,3949.230713,4177.436035,0.000000,4.000000,,,,0.000000,4.000000,4.000000,4.000000,4.000000,4.000000,8.000000,0.000000,0.713979,0.187500,0.656250,0.156250,0.906264,-0.437507,-0.031250,-76.563667,-76.563667,38.281834
1583521672.708431,17.000000,0.000000,4223.077148,4266.666504,4092.307617,3948.205078,4185.128418,0.000000,4.000000,,,,0.000000,4.000000,4.000000,4.000000,4.000000,4.000000,,,,,,,,,,,,
1583521672.716129,18.000000,0.000000,4231.794922,4268.717773,4107.692383,3963.076904,4181.538574,0.000000,4.000000,,,,0.000000,4.000000,4.000000,4.000000,4.000000,4.000000,9.000000,0.000000,0.713979,0.187500,0.656250,0.156250,0.875013,-0.437507,-0.031250,-76.563667,-76.563667,38.281834
1583521672.724026,19.000000,0.000000,4231.794922,4266.666504,4096.922852,3968.718018,4177.436035,0.000000,4.000000,,,,0.000000,4.000000,4.000000,4.000000,4.000000,4.000000,,,,,,,,,,,,
1583521672.731723,20.000000,0.000000,4232.820313,4260.512695,4084.615479,3968.718018,4184.102539,0.000000,4.000000,,,,0.000000,4.000000,4.000000,4.000000,4.000000,4.000000,10.000000,0.000000,0.713979,0.187500,0.656250,0.156250,0.906264,-0.437507,-0.031250,-76.563667,-76.563667,38.281834
1583521672.739620,21.000000,0.000000,4238.461426,4262.563965,4094.358887,3968.205078,4188.717773,0.000000,4.000000,,,,0.000000,4.000000,4.000000,4.000000,4.000000,4.000000,,,,,,,,,,,,
1583521672.747317,22.000000,0.000000,4232.307617,4268.717773,4104.615234,3970.256348,4185.128418,0.000000,4.000000,,,,0.000000,4.000000,4.000000,4.000000,4.000000,4.000000,11.000000,0.000000,0.713979,0.187500,0.656250,0.156250,0.906264,-0.437507,-0.031250,-76.563667,-76.563667,38.281834
1583521672.755214,23.000000,0.000000,4224.615234,4270.769043,4101.538574,3967.692383,4184.615234,0.000000,4.000000,,,,0.000000,4.000000,4.000000,4.000000,4.000000,4.000000,,,,,,,,,,,,
1583521672.762910,24.000000,0.000000,4227.692383,4262.563965,4096.922852,3965.128174,4184.102539,0.000000,4.000000,,,,0.000000,4.000000,4.000000,4.000000,4.000000,4.000000,12.000000,0.000000,0.713979,0.187500,0.656250,0.156250,0.906264,-0.437507,-0.062501,-76.563667,-76.563667,38.281834
1583521672.770606,25.000000,0.000000,4242.051270,4262.563965,4095.384521,3971.281982,4190.256348,0.000000,4.000000,,,,0.000000,4.000000,4.000000,4.000000,4.000000,4.000000,,,,,,,,,,,,
1583521672.778303,26.000000,0.000000,4233.333496,4260.512695,4092.820557,3974.358887,4174.358887,0.000000,4.000000,,,,0.000000,4.000000,4.000000,4.000000,4.000000,4.000000,13.000000,0.000000,0.713979,0.187500,0.656250,0.156250,0.906264,-0.437507,-0.062501,-76.563667,-76.563667,38.281834
1583521672.786199,27.000000,0.000000,4218.974121,4264.615234,4088.718018,3966.153809,4156.922852,0.000000,4.000000,,,,0.000000,4.000000,4.000000,4.000000,4.000000,4.000000,,,,,,,,,,,,
1583521672.793897,28.000000,0.000000,4219.487305,4262.563965,4082.051270,3960.000000,4160.512695,0.000000,4.000000,,,,0.000000,4.000000,4.000000,4.000000,4.000000,4.000000,14.000000,0.000000,0.713979,0.187500,0.656250,0.156250,0.906264,-0.468757,-0.062501,-76.563667,-76.563667,38.281834
1583521672.801793,29.000000,0.000000,4229.743652,4264.615234,4077.948730,3960.000000,4171.794922,0.000000,4.000000,,,,0.000000,4.000000,4.000000,4.000000,4.000000,4.000000,,,,,,,,,,,,
1583521672.809491,30.000000,0.000000,4221.025879,4256.410156,4066.153809,3961.025635,4165.128418,0.000000,4.000000,,,,0.000000,4.000000,4.000000,4.000000,4.000000,4.000000,15.000000,0.000000,0.713979,0.187500,0.656250,0.156250,0.906264,-0.468757,-0.031250,-76.563667,-76.563667,38.281834
1583521672.817388,31.000000,0.000000,4223.589844,4250.256348,4061.025635,3972.820557,4167.692383,0.000000,4.000000,,,,0.000000,4.000000,4.000000,4.000000,4.000000,4.000000,,,,,,,,,,,,
1583521672.825285,32.000000,0.000000,4241.538574,4254.358887,4069.230713,3971.794922,4172.820313,0.000000,4.000000,,,,0.000000,4.000000,4.000000,4.000000,4.000000,4.000000,16.000000,0.000000,0.713979,0.187500,0.656250,0.156250,0.875013,-0.468757,-0.031250,-76.563667,-76.563667,38.281834
1583521672.833181,33.000000,0.000000,4244.102539,4260.512695,4081.025635,3963.589844,4171.794922,0.000000,4.000000,,,,0.000000,4.000000,4.000000,4.000000,4.000000,4.000000,,,,,,,,,,,,
1583521672.840878,34.000000,0.000000,4235.897461,4260.512695,4079.487061,3967.692383,4178.461426,0.000000,4.000000,,,,0.000000,4.000000,4.000000,4.000000,4.000000,4.000000,17.000000,0.000000,0.713979,0.187500,0.656250,0.156250,0.906264,-0.468757,-0.031250,-76.563667,-76.563667,38.281834
1583521672.848774,35.000000,0.000000,4240.000000,4256.410156,4075.384521,3972.307617,4180.000000,0.000000,4.000000,,,,0.000000,4.000000,4.000000,4.000000,4.000000,4.000000,,,,,,,,,,,,
1583521672.856471,36.000000,0.000000,4242.051270,4250.256348,4072.307617,3962.564209,4171.282227,0.000000,4.000000,,,,0.000000,4.000000,4.000000,4.000000,4.000000,4.000000,18.000000,0.000000,0.713979,0.187500,0.656250,0.156250,0.906264,-0.468757,-0.062501,-76.563667,-76.563667,38.281834
1583521672.864267,37.000000,0.000000,4241.538574,4248.205078,4073.846191,3968.205078,4167.692383,0.000000,4.000000,,,,0.000000,4.000000,4.000000,4.000000,4.000000,4.000000,,,,,,,,,,,,
1583521672.871965,38.000000,0.000000,4253.846191,4250.256348,4067.179443,3980.000000,4173.846191,0.000000,4.000000,,,,0.000000,4.000000,4.000000,4.000000,4.000000,4.000000,19.000000,0.000000,0.713979,0.187500,0.656250,0.156250,0.875013,-0.468757,-0.031250,-76.563667,-76.563667,38.281834
1583521672.879862,39.000000,0.000000,4251.282227,4244.102539,4057.435791,3977.948730,4168.205078,0.000000,4.000000,,,,0.000000,4.000000,4.000000,4.000000,4.000000,4.000000,,,,,,,,,,,,
1583521672.887560,40.000000,0.000000,4247.179688,4250.256348,4060.512939,3964.615479,4169.230957,0.000000,4.000000,,,,0.000000,4.000000,4.000000,4.000000,4.000000,4.000000,20.000000,0.000000,0.713979,0.187500,0.656250,0.156250,0.906264,-0.468757,-0.062501,-76.563667,-76.563667,38.281834
1583521672.895457,41.000000,0.000000,4252.820313,4252.307617,4063.076904,3963.589844,4172.820313,0.000000,4.000000,,,,0.000000,4.000000,4.000000,4.000000,4.000000,4.000000,,,,,,,,,,,,
1583521672.903154,42.000000,0.000000,4258.461426,4254.358887,4057.435791,3973.333252,4175.384766,0.000000,4.000000,,,,0.000000,4.000000,4.000000,4.000000,4.000000,4.000000,21.000000,0.000000,0.713979,0.187500,0.656250,0.156250,0.906264,-0.468757,-0.062501,-76.563667,-76.563667,38.281834
1583521672.911051,43.000000,0.000000,4254.358887,4252.307617,4055.384521,3977.948730,4178.974121,0.000000,4.000000,,,,0.000000,4.000000,4.000000,4.000000,4.000000,4.000000,,,,,,,,,,,,
1583521672.918748,44.000000,0.000000,4265.641113,4254.358887,4066.153809,3985.641113,4186.666504,0.000000,4.000000,,,,0.000000,4.000000,4.000000,4.000000,4.000000,4.000000,22.000000,0.000000,0.713979,0.187500,0.656250,0.156250,0.906264,-0.468757,-0.031250,-76.563667,-76.563667,38.281834
1583521672.926444,45.000000,0.000000,4264.615234,4252.307617,4071.794922,3990.256348,4181.538574,0.000000,4.000000,,,,0.000000,4.000000,4.000000,4.000000,4.000000,4.000000,,,,,,,,,,,,
1583521672.934142,46.000000,0.000000,4257.948730,4256.410156,4067.179443,3989.230713,4178.461426,0.000000,4.000000,,,,0.000000,4.000000,4.000000,4.000000,4.000000,4.000000,23.000000,0.000000,0.713979,0.187500,0.656250,0.156250,0.906264,-0.437507,-0.062501,-76.563667,-76.563667,38.281834
1583521672.942038,47.000000,0.000000,4258.974121,4252.307617,4058.461426,3976.923096,4174.871582,0.000000,4.000000,,,,0.000000,4.000000,4.000000,4.000000,4.000000,4.000000,,,,,,,,,,,,
1583521672.949736,48.000000,0.000000,4260.000000,4246.153809,4061.538574,3965.641113,4173.846191,0.000000,4.000000,,,,0.000000,4.000000,4.000000,4.000000,4.000000,4.000000,24.000000,0.000000,0.713979,0.187500,0.656250,0.156250,0.906264,-0.468757,-0.062501,-76.563667,-76.563667,38.281834
1583521672.957632,49.000000,0.000000,4255.897461,4246.153809,4069.230713,3967.692383,4182.563965,0.000000,4.000000,,,,0.000000,4.000000,4.000000,4.000000,4.000000,4.000000,,,,,,,,,,,,
1583521672.965330,50.000000,0.000000,4264.102539,4254.358887,4077.435791,3991.281982,4195.897461,0.000000,4.000000,,,,0.000000,4.000000,4.000000,4.000000,4.000000,4.000000,25.000000,0.000000,0.713979,0.187500,0.656250,0.156250,0.906264,-0.468757,-0.031250,-76.563667,-76.563667,38.281834
1583521672.973226,51.000000,0.000000,4276.410156,4260.512695,4075.384521,3999.487061,4204.102539,0.000000,4.000000,,,,0.000000,4.000000,4.000000,4.000000,4.000000,4.000000,,,,,,,,,,,,
